Multi_33%Mn2O3_33%Li
Wavelength = 1.54059 Ã… (Cu)
Angle	I(o)	I(b)
10.0	1659.0	1708.2
10.01	1711.0	1709.3
10.02	1718.0	1710.4
10.03	1721.0	1711.5
10.04	1763.0	1712.6
10.05	1774.0	1713.7
10.06	1735.0	1714.8
10.07	1686.0	1715.9
10.08	1713.0	1717.0
10.09	1695.0	1718.1
10.1	1751.0	1719.2
10.11	1771.0	1720.3
10.12	1737.0	1721.4
10.13	1717.0	1722.5
10.14	1763.0	1723.6
10.15	1799.0	1724.7
10.16	1756.0	1725.7
10.17	1741.0	1726.8
10.18	1758.0	1727.9
10.19	1787.0	1729.0
10.2	1794.0	1730.1
10.21	1737.0	1731.2
10.22	1729.0	1732.3
10.23	1754.0	1733.4
10.24	1781.0	1734.5
10.25	1735.0	1735.6
10.26	1813.0	1736.7
10.27	1795.0	1737.8
10.28	1774.0	1738.9
10.29	1794.0	1740.0
10.3	1768.0	1741.1
10.31	1799.0	1742.2
10.32	1811.0	1743.2
10.33	1800.0	1744.3
10.34	1756.0	1745.4
10.35	1788.0	1746.5
10.36	1780.0	1747.6
10.37	1739.0	1748.7
10.38	1775.0	1749.8
10.39	1799.0	1750.9
10.4	1766.0	1751.9
10.41	1766.0	1753.0
10.42	1761.0	1754.1
10.43	1762.0	1755.2
10.44	1784.0	1756.3
10.45	1747.0	1757.4
10.46	1737.0	1758.4
10.47	1751.0	1759.5
10.48	1775.0	1760.6
10.49	1791.0	1761.7
10.5	1787.0	1762.7
10.51	1820.0	1763.8
10.52	1766.0	1764.9
10.53	1786.0	1766.0
10.54	1847.0	1767.0
10.55	1786.0	1768.1
10.56	1767.0	1769.2
10.57	1804.0	1770.3
10.58	1806.0	1771.3
10.59	1790.0	1772.4
10.6	1760.0	1773.5
10.61	1794.0	1774.5
10.62	1814.0	1775.6
10.63	1816.0	1776.6
10.64	1845.0	1777.7
10.65	1806.0	1778.8
10.66	1787.0	1779.8
10.67	1839.0	1780.9
10.68	1765.0	1781.9
10.69	1791.0	1783.0
10.7	1851.0	1784.0
10.71	1814.0	1785.1
10.72	1826.0	1786.2
10.73	1794.0	1787.2
10.74	1791.0	1788.2
10.75	1818.0	1789.3
10.76	1807.0	1790.3
10.77	1841.0	1791.4
10.78	1846.0	1792.4
10.79	1805.0	1793.5
10.8	1853.0	1794.5
10.81	1825.0	1795.5
10.82	1806.0	1796.6
10.83	1776.0	1797.6
10.84	1813.0	1798.7
10.85	1832.0	1799.7
10.86	1833.0	1800.7
10.87	1800.0	1801.7
10.88	1798.0	1802.8
10.89	1835.0	1803.8
10.9	1772.0	1804.8
10.91	1761.0	1805.8
10.92	1781.0	1806.9
10.93	1796.0	1807.9
10.94	1788.0	1808.9
10.95	1861.0	1809.9
10.96	1816.0	1810.9
10.97	1871.0	1811.9
10.98	1803.0	1813.0
10.99	1857.0	1814.0
11.0	1844.0	1815.0
11.01	1829.0	1816.0
11.02	1838.0	1817.0
11.03	1814.0	1818.0
11.04	1794.0	1819.0
11.05	1841.0	1820.0
11.06	1839.0	1821.0
11.07	1827.0	1822.0
11.08	1859.0	1822.9
11.09	1826.0	1823.9
11.1	1799.0	1824.9
11.11	1820.0	1825.9
11.12	1817.0	1826.9
11.13	1841.0	1827.9
11.14	1926.0	1828.9
11.15	1879.0	1829.8
11.16	1816.0	1830.8
11.17	1862.0	1831.8
11.18	1834.0	1832.7
11.19	1821.0	1833.7
11.2	1881.0	1834.7
11.21	1833.0	1835.6
11.22	1870.0	1836.6
11.23	1876.0	1837.6
11.24	1822.0	1838.5
11.25	1867.0	1839.5
11.26	1864.0	1840.4
11.27	1839.0	1841.4
11.28	1836.0	1842.3
11.29	1823.0	1843.3
11.3	1861.0	1844.2
11.31	1889.0	1845.2
11.32	1881.0	1846.1
11.33	1887.0	1847.1
11.34	1850.0	1848.0
11.35	1864.0	1848.9
11.36	1844.0	1849.9
11.37	1836.0	1850.8
11.38	1813.0	1851.7
11.39	1804.0	1852.7
11.4	1873.0	1853.6
11.41	1865.0	1854.5
11.42	1848.0	1855.4
11.43	1891.0	1856.4
11.44	1910.0	1857.3
11.45	1876.0	1858.2
11.46	1812.0	1859.1
11.47	1848.0	1860.0
11.48	1863.0	1860.9
11.49	1844.0	1861.8
11.5	1895.0	1862.7
11.51	1904.0	1863.6
11.52	1905.0	1864.5
11.53	1914.0	1865.4
11.54	1906.0	1866.3
11.55	1885.0	1867.2
11.56	1868.0	1868.1
11.57	1871.0	1869.0
11.58	1901.0	1869.9
11.59	1895.0	1870.8
11.6	1915.0	1871.7
11.61	1908.0	1872.5
11.62	1881.0	1873.4
11.63	1814.0	1874.3
11.64	1870.0	1875.2
11.65	1871.0	1876.0
11.66	1854.0	1876.9
11.67	1891.0	1877.8
11.68	1901.0	1878.6
11.69	1874.0	1879.5
11.7	1913.0	1880.4
11.71	1856.0	1881.2
11.72	1856.0	1882.1
11.73	1900.0	1882.9
11.74	1933.0	1883.8
11.75	1893.0	1884.6
11.76	1881.0	1885.5
11.77	1911.0	1886.3
11.78	1893.0	1887.2
11.79	1885.0	1888.0
11.8	1929.0	1888.8
11.81	1924.0	1889.7
11.82	1882.0	1890.5
11.83	1889.0	1891.3
11.84	1858.0	1892.2
11.85	1905.0	1893.0
11.86	1941.0	1893.8
11.87	1894.0	1894.6
11.88	1894.0	1895.5
11.89	1943.0	1896.3
11.9	1974.0	1897.1
11.91	1915.0	1897.9
11.92	1895.0	1898.7
11.93	1887.0	1899.5
11.94	1904.0	1900.3
11.95	1949.0	1901.1
11.96	1933.0	1901.9
11.97	1890.0	1902.7
11.98	1872.0	1903.5
11.99	1915.0	1904.3
12.0	1974.0	1905.1
12.01	2001.0	1905.9
12.02	1930.0	1906.7
12.03	1911.0	1907.5
12.04	1893.0	1908.3
12.05	1906.0	1909.0
12.06	1959.0	1909.8
12.07	1935.0	1910.6
12.08	1924.0	1911.4
12.09	1957.0	1912.1
12.1	1961.0	1912.9
12.11	1931.0	1913.7
12.12	1883.0	1914.4
12.13	1922.0	1915.2
12.14	1924.0	1916.0
12.15	1941.0	1916.7
12.16	1915.0	1917.5
12.17	1905.0	1918.2
12.18	1959.0	1919.0
12.19	1940.0	1919.7
12.2	1926.0	1920.5
12.21	1944.0	1921.2
12.22	1925.0	1921.9
12.23	1895.0	1922.7
12.24	1908.0	1923.4
12.25	1867.0	1924.1
12.26	1917.0	1924.9
12.27	1951.0	1925.6
12.28	1971.0	1926.3
12.29	1942.0	1927.0
12.3	1932.0	1927.8
12.31	1954.0	1928.5
12.32	1951.0	1929.2
12.33	1948.0	1929.9
12.34	1934.0	1930.6
12.35	1955.0	1931.3
12.36	1937.0	1932.0
12.37	1931.0	1932.7
12.38	1929.0	1933.4
12.39	1918.0	1934.1
12.4	1941.0	1934.8
12.41	1942.0	1935.5
12.42	1982.0	1936.2
12.43	1957.0	1936.9
12.44	1997.0	1937.6
12.45	2013.0	1938.2
12.46	1924.0	1938.9
12.47	1943.0	1939.6
12.48	1967.0	1940.3
12.49	1947.0	1940.9
12.5	1949.0	1941.6
12.51	1964.0	1942.3
12.52	1962.0	1942.9
12.53	1954.0	1943.6
12.54	1956.0	1944.3
12.55	1948.0	1944.9
12.56	1993.0	1945.6
12.57	1970.0	1946.2
12.58	1899.0	1946.9
12.59	1976.0	1947.5
12.6	1986.0	1948.1
12.61	1978.0	1948.8
12.62	2010.0	1949.4
12.63	1917.0	1950.1
12.64	1948.0	1950.7
12.65	1899.0	1951.3
12.66	1946.0	1951.9
12.67	1943.0	1952.6
12.68	2009.0	1953.2
12.69	1971.0	1953.8
12.7	1958.0	1954.4
12.71	1989.0	1955.0
12.72	1944.0	1955.7
12.73	1924.0	1956.3
12.74	1940.0	1956.9
12.75	1921.0	1957.5
12.76	1921.0	1958.1
12.77	1906.0	1958.7
12.78	1978.0	1959.3
12.79	1971.0	1959.9
12.8	1977.0	1960.4
12.81	1993.0	1961.0
12.82	1994.0	1961.6
12.83	1942.0	1962.2
12.84	1909.0	1962.8
12.85	1946.0	1963.4
12.86	1971.0	1963.9
12.87	1937.0	1964.5
12.88	1958.0	1965.1
12.89	1940.0	1965.6
12.9	1910.0	1966.2
12.91	1946.0	1966.8
12.92	1955.0	1967.3
12.93	1983.0	1967.9
12.94	1998.0	1968.4
12.95	1989.0	1969.0
12.96	1986.0	1969.5
12.97	2024.0	1970.1
12.98	2020.0	1970.6
12.99	1965.0	1971.1
13.0	1992.0	1971.7
13.01	1976.0	1972.2
13.02	1942.0	1972.7
13.03	2000.0	1973.2
13.04	2043.0	1973.8
13.05	1981.0	1974.3
13.06	1964.0	1974.8
13.07	2023.0	1975.3
13.08	2041.0	1975.8
13.09	2015.0	1976.3
13.1	2025.0	1976.9
13.11	1982.0	1977.4
13.12	2000.0	1977.9
13.13	1969.0	1978.4
13.14	2002.0	1978.9
13.15	2021.0	1979.3
13.16	2021.0	1979.8
13.17	1995.0	1980.3
13.18	1993.0	1980.8
13.19	1996.0	1981.3
13.2	2023.0	1981.8
13.21	2005.0	1982.2
13.22	1980.0	1982.7
13.23	2004.0	1983.2
13.24	2023.0	1983.6
13.25	2015.0	1984.1
13.26	2025.0	1984.6
13.27	1973.0	1985.0
13.28	1977.0	1985.5
13.29	2000.0	1985.9
13.3	1962.0	1986.4
13.31	1997.0	1986.8
13.32	1998.0	1987.3
13.33	2002.0	1987.7
13.34	1988.0	1988.2
13.35	1988.0	1988.6
13.36	1985.0	1989.0
13.37	1985.0	1989.5
13.38	1988.0	1989.9
13.39	2015.0	1990.3
13.4	2072.0	1990.7
13.41	2067.0	1991.1
13.42	2054.0	1991.6
13.43	2028.0	1992.0
13.44	2026.0	1992.4
13.45	2059.0	1992.8
13.46	2045.0	1993.2
13.47	2005.0	1993.6
13.48	1960.0	1994.0
13.49	1989.0	1994.4
13.5	2002.0	1994.8
13.51	2081.0	1995.1
13.52	2052.0	1995.5
13.53	2080.0	1995.9
13.54	2073.0	1996.3
13.55	2038.0	1996.7
13.56	2007.0	1997.0
13.57	2014.0	1997.4
13.58	2048.0	1997.8
13.59	2073.0	1998.1
13.6	2012.0	1998.5
13.61	2060.0	1998.9
13.62	2056.0	1999.2
13.63	2031.0	1999.6
13.64	2014.0	1999.9
13.65	2025.0	2000.3
13.66	2045.0	2000.6
13.67	2062.0	2000.9
13.68	2030.0	2001.3
13.69	2004.0	2001.6
13.7	2055.0	2001.9
13.71	2044.0	2002.3
13.72	1991.0	2002.6
13.73	2094.0	2002.9
13.74	2130.0	2003.2
13.75	2045.0	2003.6
13.76	2026.0	2003.9
13.77	2037.0	2004.2
13.78	2064.0	2004.5
13.79	2076.0	2004.8
13.8	2036.0	2005.1
13.81	2014.0	2005.4
13.82	2053.0	2005.7
13.83	2052.0	2006.0
13.84	2049.0	2006.3
13.85	2075.0	2006.6
13.86	2105.0	2006.8
13.87	2087.0	2007.1
13.88	2067.0	2007.4
13.89	2047.0	2007.7
13.9	2067.0	2008.0
13.91	2087.0	2008.2
13.92	2049.0	2008.5
13.93	2037.0	2008.8
13.94	2057.0	2009.0
13.95	2019.0	2009.3
13.96	2073.0	2009.5
13.97	2092.0	2009.8
13.98	2095.0	2010.0
13.99	2086.0	2010.3
14.0	2063.0	2010.5
14.01	2046.0	2010.8
14.02	2045.0	2011.0
14.03	2002.0	2011.3
14.04	2033.0	2011.5
14.05	2072.0	2011.7
14.06	2094.0	2012.0
14.07	2065.0	2012.2
14.08	2029.0	2012.4
14.09	2001.0	2012.6
14.1	2051.0	2012.8
14.11	2089.0	2013.1
14.12	2067.0	2013.3
14.13	2036.0	2013.5
14.14	2013.0	2013.7
14.15	2084.0	2013.9
14.16	2112.0	2014.1
14.17	2101.0	2014.3
14.18	2055.0	2014.5
14.19	2088.0	2014.7
14.2	2073.0	2014.9
14.21	2070.0	2015.1
14.22	2110.0	2015.2
14.23	2096.0	2015.4
14.24	2060.0	2015.6
14.25	2066.0	2015.8
14.26	2065.0	2015.9
14.27	2078.0	2016.1
14.28	2108.0	2016.3
14.29	2072.0	2016.5
14.3	2076.0	2016.6
14.31	2069.0	2016.8
14.32	2082.0	2016.9
14.33	2081.0	2017.1
14.34	2073.0	2017.2
14.35	2055.0	2017.4
14.36	2078.0	2017.5
14.37	2081.0	2017.7
14.38	2093.0	2017.8
14.39	2106.0	2018.0
14.4	2101.0	2018.1
14.41	2062.0	2018.2
14.42	2045.0	2018.4
14.43	2010.0	2018.5
14.44	2054.0	2018.6
14.45	2101.0	2018.7
14.46	2055.0	2018.9
14.47	2011.0	2019.0
14.48	2055.0	2019.1
14.49	2085.0	2019.2
14.5	2064.0	2019.3
14.51	2039.0	2019.4
14.52	2014.0	2019.5
14.53	2032.0	2019.6
14.54	2066.0	2019.7
14.55	2052.0	2019.8
14.56	2030.0	2019.9
14.57	2067.0	2020.0
14.58	2058.0	2020.1
14.59	2077.0	2020.2
14.6	2105.0	2020.3
14.61	2031.0	2020.3
14.62	2041.0	2020.4
14.63	2072.0	2020.5
14.64	2055.0	2020.6
14.65	2066.0	2020.6
14.66	2065.0	2020.7
14.67	2049.0	2020.8
14.68	2067.0	2020.8
14.69	2054.0	2020.9
14.7	2029.0	2020.9
14.71	1993.0	2021.0
14.72	2024.0	2021.1
14.73	2094.0	2021.1
14.74	2095.0	2021.2
14.75	2062.0	2021.2
14.76	2054.0	2021.2
14.77	2055.0	2021.3
14.78	2045.0	2021.3
14.79	2089.0	2021.3
14.8	2066.0	2021.4
14.81	2047.0	2021.4
14.82	2061.0	2021.4
14.83	2051.0	2021.5
14.84	2078.0	2021.5
14.85	2123.0	2021.5
14.86	2147.0	2021.5
14.87	2071.0	2021.5
14.88	2008.0	2021.5
14.89	2031.0	2021.6
14.9	2061.0	2021.6
14.91	2048.0	2021.6
14.92	2029.0	2021.6
14.93	2048.0	2021.6
14.94	2025.0	2021.6
14.95	2035.0	2021.6
14.96	2046.0	2021.6
14.97	2045.0	2021.5
14.98	2084.0	2021.5
14.99	2096.0	2021.5
15.0	2057.0	2021.5
15.01	2043.0	2021.5
15.02	2055.0	2021.5
15.03	2075.0	2021.4
15.04	2070.0	2021.4
15.05	2075.0	2021.4
15.06	2083.0	2021.3
15.07	2082.0	2021.3
15.08	2069.0	2021.3
15.09	2092.0	2021.2
15.1	2061.0	2021.2
15.11	2048.0	2021.1
15.12	2094.0	2021.1
15.13	2077.0	2021.0
15.14	2041.0	2021.0
15.15	2046.0	2020.9
15.16	2079.0	2020.9
15.17	2059.0	2020.8
15.18	2017.0	2020.8
15.19	2009.0	2020.7
15.2	2004.0	2020.6
15.21	1976.0	2020.6
15.22	1998.0	2020.5
15.23	2033.0	2020.4
15.24	2029.0	2020.3
15.25	2036.0	2020.3
15.26	2057.0	2020.2
15.27	2050.0	2020.1
15.28	2052.0	2020.0
15.29	2024.0	2019.9
15.3	2011.0	2019.8
15.31	2042.0	2019.7
15.32	2040.0	2019.6
15.33	2048.0	2019.5
15.34	2019.0	2019.4
15.35	1978.0	2019.3
15.36	1979.0	2019.2
15.37	2026.0	2019.1
15.38	2046.0	2019.0
15.39	2058.0	2018.9
15.4	2038.0	2018.8
15.41	2038.0	2018.7
15.42	2016.0	2018.6
15.43	2023.0	2018.4
15.44	1991.0	2018.3
15.45	2003.0	2018.2
15.46	2058.0	2018.1
15.47	2080.0	2017.9
15.48	2033.0	2017.8
15.49	2025.0	2017.7
15.5	2040.0	2017.5
15.51	2020.0	2017.4
15.52	2018.0	2017.3
15.53	2041.0	2017.1
15.54	2040.0	2017.0
15.55	2032.0	2016.8
15.56	2061.0	2016.7
15.57	2018.0	2016.5
15.58	2000.0	2016.4
15.59	2011.0	2016.2
15.6	2007.0	2016.0
15.61	2002.0	2015.9
15.62	2003.0	2015.7
15.63	1967.0	2015.6
15.64	1983.0	2015.4
15.65	2048.0	2015.2
15.66	2062.0	2015.0
15.67	2098.0	2014.9
15.68	2079.0	2014.7
15.69	2039.0	2014.5
15.7	2059.0	2014.3
15.71	2056.0	2014.1
15.72	2022.0	2014.0
15.73	2018.0	2013.8
15.74	2030.0	2013.6
15.75	2051.0	2013.4
15.76	2043.0	2013.2
15.77	2010.0	2013.0
15.78	2024.0	2012.8
15.79	2017.0	2012.6
15.8	2010.0	2012.4
15.81	2037.0	2012.2
15.82	2080.0	2012.0
15.83	2044.0	2011.8
15.84	2019.0	2011.6
15.85	2029.0	2011.3
15.86	1995.0	2011.1
15.87	1994.0	2010.9
15.88	2014.0	2010.7
15.89	2030.0	2010.5
15.9	2028.0	2010.2
15.91	2000.0	2010.0
15.92	2014.0	2009.8
15.93	2029.0	2009.6
15.94	2008.0	2009.3
15.95	2018.0	2009.1
15.96	2013.0	2008.8
15.97	1995.0	2008.6
15.98	2011.0	2008.4
15.99	2046.0	2008.1
16.0	2055.0	2007.9
16.01	2041.0	2007.6
16.02	2030.0	2007.4
16.03	2046.0	2007.1
16.04	2056.0	2006.9
16.05	2025.0	2006.6
16.06	1982.0	2006.3
16.07	1994.0	2006.1
16.08	1981.0	2005.8
16.09	1965.0	2005.6
16.1	1946.0	2005.3
16.11	1928.0	2005.0
16.12	1940.0	2004.8
16.13	1984.0	2004.5
16.14	2023.0	2004.2
16.15	2017.0	2003.9
16.16	1980.0	2003.6
16.17	1956.0	2003.4
16.18	1971.0	2003.1
16.19	1988.0	2002.8
16.2	1989.0	2002.5
16.21	1977.0	2002.2
16.22	1991.0	2001.9
16.23	2006.0	2001.6
16.24	2031.0	2001.3
16.25	2008.0	2001.0
16.26	1974.0	2000.7
16.27	2019.0	2000.4
16.28	1982.0	2000.1
16.29	1965.0	1999.8
16.3	2024.0	1999.5
16.31	2046.0	1999.2
16.32	2010.0	1998.9
16.33	1997.0	1998.6
16.34	2014.0	1998.3
16.35	2031.0	1997.9
16.36	2021.0	1997.6
16.37	2032.0	1997.3
16.38	2028.0	1997.0
16.39	2024.0	1996.7
16.4	1999.0	1996.3
16.41	1988.0	1996.0
16.42	2014.0	1995.7
16.43	2013.0	1995.3
16.44	2021.0	1995.0
16.45	2043.0	1994.7
16.46	1962.0	1994.3
16.47	1932.0	1994.0
16.48	1999.0	1993.6
16.49	1999.0	1993.3
16.5	1969.0	1992.9
16.51	1949.0	1992.6
16.52	1963.0	1992.2
16.53	2007.0	1991.9
16.54	2007.0	1991.5
16.55	1994.0	1991.2
16.56	1974.0	1990.8
16.57	1953.0	1990.4
16.58	1958.0	1990.1
16.59	1977.0	1989.7
16.6	1996.0	1989.4
16.61	1994.0	1989.0
16.62	1974.0	1988.6
16.63	2003.0	1988.2
16.64	1989.0	1987.9
16.65	1950.0	1987.5
16.66	1951.0	1987.1
16.67	1989.0	1986.7
16.68	2007.0	1986.4
16.69	1973.0	1986.0
16.7	1938.0	1985.6
16.71	1942.0	1985.2
16.72	1948.0	1984.8
16.73	1963.0	1984.4
16.74	1979.0	1984.0
16.75	1967.0	1983.6
16.76	1963.0	1983.2
16.77	1973.0	1982.8
16.78	1997.0	1982.4
16.79	1990.0	1982.0
16.8	1944.0	1981.6
16.81	1955.0	1981.2
16.82	2003.0	1980.8
16.83	2030.0	1980.4
16.84	2012.0	1980.0
16.85	1977.0	1979.6
16.86	1965.0	1979.2
16.87	1967.0	1978.7
16.88	1984.0	1978.3
16.89	2030.0	1977.9
16.9	1998.0	1977.5
16.91	1971.0	1977.1
16.92	1985.0	1976.6
16.93	1994.0	1976.2
16.94	2012.0	1975.8
16.95	2003.0	1975.3
16.96	1966.0	1974.9
16.97	1943.0	1974.5
16.98	1909.0	1974.0
16.99	1909.0	1973.6
17.0	1933.0	1973.2
17.01	1944.0	1972.7
17.02	1972.0	1972.3
17.03	2006.0	1971.8
17.04	2011.0	1971.4
17.05	2006.0	1970.9
17.06	2009.0	1970.5
17.07	2001.0	1970.0
17.08	2000.0	1969.6
17.09	1991.0	1969.1
17.1	1992.0	1968.7
17.11	1982.0	1968.2
17.12	1974.0	1967.7
17.13	1975.0	1967.3
17.14	1983.0	1966.8
17.15	1983.0	1966.4
17.16	1964.0	1965.9
17.17	1955.0	1965.4
17.18	1971.0	1964.9
17.19	1974.0	1964.5
17.2	1973.0	1964.0
17.21	1977.0	1963.5
17.22	1964.0	1963.0
17.23	1959.0	1962.6
17.24	1967.0	1962.1
17.25	1987.0	1961.6
17.26	1998.0	1961.1
17.27	1979.0	1960.6
17.28	1959.0	1960.1
17.29	1945.0	1959.7
17.3	1937.0	1959.2
17.31	1953.0	1958.7
17.32	1978.0	1958.2
17.33	1958.0	1957.7
17.34	1993.0	1957.2
17.35	2061.0	1956.7
17.36	2030.0	1956.2
17.37	1988.0	1955.7
17.38	1991.0	1955.2
17.39	1962.0	1954.7
17.4	1920.0	1954.2
17.41	1940.0	1953.6
17.42	1958.0	1953.1
17.43	1936.0	1952.6
17.44	1939.0	1952.1
17.45	1946.0	1951.6
17.46	1946.0	1951.1
17.47	1948.0	1950.6
17.48	1924.0	1950.0
17.49	1934.0	1949.5
17.5	1964.0	1949.0
17.51	1954.0	1948.5
17.52	1930.0	1947.9
17.53	1924.0	1947.4
17.54	1939.0	1946.9
17.55	1974.0	1946.3
17.56	1970.0	1945.8
17.57	1936.0	1945.3
17.58	1962.0	1944.7
17.59	1983.0	1944.2
17.6	1961.0	1943.7
17.61	1972.0	1943.1
17.62	1989.0	1942.6
17.63	1969.0	1942.0
17.64	1950.0	1941.5
17.65	1957.0	1940.9
17.66	1967.0	1940.4
17.67	1953.0	1939.8
17.68	1923.0	1939.3
17.69	1909.0	1938.7
17.7	1905.0	1938.2
17.71	1882.0	1937.6
17.72	1887.0	1937.1
17.73	1922.0	1936.5
17.74	1948.0	1936.0
17.75	1967.0	1935.4
17.76	1982.0	1934.8
17.77	1958.0	1934.3
17.78	1912.0	1933.7
17.79	1898.0	1933.1
17.8	1919.0	1932.6
17.81	1936.0	1932.0
17.82	1924.0	1931.4
17.83	1952.0	1930.8
17.84	1979.0	1930.3
17.85	1956.0	1929.7
17.86	1966.0	1929.1
17.87	1979.0	1928.5
17.88	1953.0	1927.9
17.89	1950.0	1927.4
17.9	1971.0	1926.8
17.91	1998.0	1926.2
17.92	1983.0	1925.6
17.93	1952.0	1925.0
17.94	1957.0	1924.4
17.95	1964.0	1923.8
17.96	1963.0	1923.2
17.97	1965.0	1922.6
17.98	1982.0	1922.1
17.99	2002.0	1921.5
18.0	1961.0	1920.9
18.01	1941.0	1920.3
18.02	1947.0	1919.7
18.03	1941.0	1919.1
18.04	1944.0	1918.4
18.05	1943.0	1917.8
18.06	1980.0	1917.2
18.07	1984.0	1916.6
18.08	1948.0	1916.0
18.09	1969.0	1915.4
18.1	2000.0	1914.8
18.11	1989.0	1914.2
18.12	1997.0	1913.6
18.13	2016.0	1912.9
18.14	1998.0	1912.3
18.15	1991.0	1911.7
18.16	1997.0	1911.1
18.17	1986.0	1910.5
18.18	2000.0	1909.8
18.19	2053.0	1909.2
18.2	2041.0	1908.6
18.21	2016.0	1908.0
18.22	2008.0	1907.3
18.23	2021.0	1906.7
18.24	1973.0	1906.1
18.25	1950.0	1905.4
18.26	1984.0	1904.8
18.27	2023.0	1904.2
18.28	2037.0	1903.5
18.29	2024.0	1902.9
18.3	2019.0	1902.3
18.31	2006.0	1901.6
18.32	1970.0	1901.0
18.33	1971.0	1900.3
18.34	2021.0	1899.7
18.35	2027.0	1899.0
18.36	2029.0	1898.4
18.37	2037.0	1897.7
18.38	2076.0	1897.1
18.39	2101.0	1896.4
18.4	2138.0	1895.8
18.41	2157.0	1895.1
18.42	2153.0	1894.5
18.43	2157.0	1893.8
18.44	2120.0	1893.2
18.45	2088.0	1892.5
18.46	2066.0	1891.8
18.47	2075.0	1891.2
18.48	2115.0	1890.5
18.49	2126.0	1889.9
18.5	2123.0	1889.2
18.51	2086.0	1888.5
18.52	2059.0	1887.9
18.53	2099.0	1887.2
18.54	2068.0	1886.5
18.55	2017.0	1885.9
18.56	2023.0	1885.2
18.57	1988.0	1884.5
18.58	1976.0	1883.8
18.59	2007.0	1883.2
18.6	2032.0	1882.5
18.61	1978.0	1881.8
18.62	1950.0	1881.1
18.63	1984.0	1880.4
18.64	2007.0	1879.8
18.65	1982.0	1879.1
18.66	1934.0	1878.4
18.67	1944.0	1877.7
18.68	1941.0	1877.0
18.69	1966.0	1876.3
18.7	2010.0	1875.6
18.71	1994.0	1875.0
18.72	1972.0	1874.3
18.73	1979.0	1873.6
18.74	1959.0	1872.9
18.75	1939.0	1872.2
18.76	1945.0	1871.5
18.77	1938.0	1870.8
18.78	1921.0	1870.1
18.79	1907.0	1869.4
18.8	1930.0	1868.7
18.81	1943.0	1868.0
18.82	1939.0	1867.3
18.83	1906.0	1866.6
18.84	1885.0	1865.9
18.85	1916.0	1865.2
18.86	1941.0	1864.5
18.87	1933.0	1863.8
18.88	1924.0	1863.0
18.89	1931.0	1862.3
18.9	1922.0	1861.6
18.91	1871.0	1860.9
18.92	1875.0	1860.2
18.93	1904.0	1859.5
18.94	1886.0	1858.8
18.95	1883.0	1858.0
18.96	1904.0	1857.3
18.97	1856.0	1856.6
18.98	1846.0	1855.9
18.99	1871.0	1855.2
19.0	1874.0	1854.4
19.01	1874.0	1853.7
19.02	1865.0	1853.0
19.03	1858.0	1852.3
19.04	1868.0	1851.5
19.05	1871.0	1850.8
19.06	1881.0	1850.1
19.07	1901.0	1849.4
19.08	1867.0	1848.6
19.09	1840.0	1847.9
19.1	1840.0	1847.2
19.11	1878.0	1846.4
19.12	1855.0	1845.7
19.13	1792.0	1845.0
19.14	1783.0	1844.2
19.15	1792.0	1843.5
19.16	1807.0	1842.7
19.17	1824.0	1842.0
19.18	1841.0	1841.3
19.19	1876.0	1840.5
19.2	1846.0	1839.8
19.21	1837.0	1839.0
19.22	1877.0	1838.3
19.23	1858.0	1837.5
19.24	1837.0	1836.8
19.25	1850.0	1836.0
19.26	1840.0	1835.3
19.27	1826.0	1834.5
19.28	1845.0	1833.8
19.29	1843.0	1833.0
19.3	1814.0	1832.3
19.31	1790.0	1831.5
19.32	1842.0	1830.8
19.33	1849.0	1830.0
19.34	1821.0	1829.3
19.35	1824.0	1828.5
19.36	1834.0	1827.8
19.37	1819.0	1827.0
19.38	1852.0	1826.2
19.39	1871.0	1825.5
19.4	1848.0	1824.7
19.41	1843.0	1823.9
19.42	1798.0	1823.2
19.43	1803.0	1822.4
19.44	1801.0	1821.7
19.45	1827.0	1820.9
19.46	1820.0	1820.1
19.47	1836.0	1819.3
19.48	1826.0	1818.6
19.49	1803.0	1817.8
19.5	1814.0	1817.0
19.51	1814.0	1816.3
19.52	1797.0	1815.5
19.53	1810.0	1814.7
19.54	1828.0	1813.9
19.55	1826.0	1813.2
19.56	1829.0	1812.4
19.57	1820.0	1811.6
19.58	1787.0	1810.8
19.59	1790.0	1810.1
19.6	1843.0	1809.3
19.61	1842.0	1808.5
19.62	1786.0	1807.7
19.63	1772.0	1806.9
19.64	1785.0	1806.1
19.65	1774.0	1805.4
19.66	1794.0	1804.6
19.67	1802.0	1803.8
19.68	1754.0	1803.0
19.69	1756.0	1802.2
19.7	1774.0	1801.4
19.71	1774.0	1800.6
19.72	1789.0	1799.8
19.73	1794.0	1799.1
19.74	1802.0	1798.3
19.75	1831.0	1797.5
19.76	1830.0	1796.7
19.77	1824.0	1795.9
19.78	1809.0	1795.1
19.79	1809.0	1794.3
19.8	1825.0	1793.5
19.81	1813.0	1792.7
19.82	1760.0	1791.9
19.83	1787.0	1791.1
19.84	1808.0	1790.3
19.85	1775.0	1789.5
19.86	1786.0	1788.7
19.87	1826.0	1787.9
19.88	1785.0	1787.1
19.89	1772.0	1786.3
19.9	1774.0	1785.5
19.91	1756.0	1784.7
19.92	1771.0	1783.9
19.93	1763.0	1783.1
19.94	1763.0	1782.3
19.95	1785.0	1781.5
19.96	1782.0	1780.7
19.97	1779.0	1779.8
19.98	1774.0	1779.0
19.99	1775.0	1778.2
20.0	1777.0	1777.4
20.01	1773.0	1776.6
20.02	1761.0	1775.8
20.03	1773.0	1775.0
20.04	1773.0	1774.2
20.05	1775.0	1773.3
20.06	1763.0	1772.5
20.07	1788.0	1771.7
20.08	1801.0	1770.9
20.09	1821.0	1770.1
20.1	1787.0	1769.3
20.11	1787.0	1768.4
20.12	1767.0	1767.6
20.13	1744.0	1766.8
20.14	1775.0	1766.0
20.15	1785.0	1765.2
20.16	1768.0	1764.3
20.17	1771.0	1763.5
20.18	1769.0	1762.7
20.19	1777.0	1761.9
20.2	1817.0	1761.0
20.21	1801.0	1760.2
20.22	1748.0	1759.4
20.23	1752.0	1758.6
20.24	1798.0	1757.7
20.25	1790.0	1756.9
20.26	1785.0	1756.1
20.27	1797.0	1755.2
20.28	1803.0	1754.4
20.29	1788.0	1753.6
20.3	1752.0	1752.8
20.31	1825.0	1751.9
20.32	1777.0	1751.1
20.33	1781.0	1750.3
20.34	1790.0	1749.4
20.35	1800.0	1748.6
20.36	1764.0	1747.8
20.37	1756.0	1746.9
20.38	1742.0	1746.1
20.39	1777.0	1745.2
20.4	1809.0	1744.4
20.41	1789.0	1743.6
20.42	1748.0	1742.7
20.43	1736.0	1741.9
20.44	1755.0	1741.1
20.45	1758.0	1740.2
20.46	1723.0	1739.4
20.47	1744.0	1738.5
20.48	1748.0	1737.7
20.49	1734.0	1736.8
20.5	1745.0	1736.0
20.51	1743.0	1735.2
20.52	1758.0	1734.3
20.53	1778.0	1733.5
20.54	1731.0	1732.6
20.55	1711.0	1731.8
20.56	1750.0	1730.9
20.57	1788.0	1730.1
20.58	1777.0	1729.2
20.59	1709.0	1728.4
20.6	1709.0	1727.5
20.61	1715.0	1726.7
20.62	1727.0	1725.9
20.63	1716.0	1725.0
20.64	1726.0	1724.2
20.65	1726.0	1723.3
20.66	1710.0	1722.4
20.67	1719.0	1721.6
20.68	1741.0	1720.7
20.69	1727.0	1719.9
20.7	1725.0	1719.0
20.71	1716.0	1718.2
20.72	1750.0	1717.3
20.73	1715.0	1716.5
20.74	1680.0	1715.6
20.75	1667.0	1714.8
20.76	1714.0	1713.9
20.77	1719.0	1713.1
20.78	1688.0	1712.2
20.79	1691.0	1711.3
20.8	1716.0	1710.5
20.81	1724.0	1709.6
20.82	1711.0	1708.8
20.83	1689.0	1707.9
20.84	1714.0	1707.0
20.85	1717.0	1706.2
20.86	1752.0	1705.3
20.87	1693.0	1704.5
20.88	1726.0	1703.6
20.89	1732.0	1702.7
20.9	1713.0	1701.9
20.91	1704.0	1701.0
20.92	1688.0	1700.1
20.93	1646.0	1699.3
20.94	1655.0	1698.4
20.95	1685.0	1697.5
20.96	1697.0	1696.7
20.97	1728.0	1695.8
20.98	1718.0	1694.9
20.99	1706.0	1694.1
21.0	1714.0	1693.2
21.01	1719.0	1692.3
21.02	1733.0	1691.5
21.03	1702.0	1690.6
21.04	1695.0	1689.7
21.05	1692.0	1688.9
21.06	1671.0	1688.0
21.07	1663.0	1687.1
21.08	1664.0	1686.3
21.09	1670.0	1685.4
21.1	1711.0	1684.5
21.11	1739.0	1683.6
21.12	1698.0	1682.8
21.13	1677.0	1681.9
21.14	1629.0	1681.0
21.15	1615.0	1680.1
21.16	1596.0	1679.3
21.17	1669.0	1678.4
21.18	1690.0	1677.5
21.19	1662.0	1676.6
21.2	1687.0	1675.8
21.21	1709.0	1674.9
21.22	1708.0	1674.0
21.23	1681.0	1673.1
21.24	1657.0	1672.3
21.25	1652.0	1671.4
21.26	1680.0	1670.5
21.27	1701.0	1669.6
21.28	1682.0	1668.7
21.29	1654.0	1667.9
21.3	1626.0	1667.0
21.31	1656.0	1666.1
21.32	1650.0	1665.2
21.33	1675.0	1664.3
21.34	1691.0	1663.5
21.35	1680.0	1662.6
21.36	1664.0	1661.7
21.37	1661.0	1660.8
21.38	1667.0	1659.9
21.39	1685.0	1659.0
21.4	1653.0	1658.2
21.41	1619.0	1657.3
21.42	1609.0	1656.4
21.43	1665.0	1655.5
21.44	1673.0	1654.6
21.45	1660.0	1653.7
21.46	1664.0	1652.8
21.47	1632.0	1652.0
21.48	1603.0	1651.1
21.49	1614.0	1650.2
21.5	1649.0	1649.3
21.51	1661.0	1648.4
21.52	1584.0	1647.5
21.53	1565.0	1646.6
21.54	1577.0	1645.7
21.55	1585.0	1644.9
21.56	1619.0	1644.0
21.57	1643.0	1643.1
21.58	1644.0	1642.2
21.59	1613.0	1641.3
21.6	1597.0	1640.4
21.61	1552.0	1639.5
21.62	1592.0	1638.6
21.63	1624.0	1637.7
21.64	1615.0	1636.8
21.65	1625.0	1635.9
21.66	1624.0	1635.1
21.67	1611.0	1634.2
21.68	1574.0	1633.3
21.69	1609.0	1632.4
21.7	1621.0	1631.5
21.71	1592.0	1630.6
21.72	1584.0	1629.7
21.73	1564.0	1628.8
21.74	1631.0	1627.9
21.75	1604.0	1627.0
21.76	1641.0	1626.1
21.77	1643.0	1625.2
21.78	1605.0	1624.3
21.79	1562.0	1623.4
21.8	1575.0	1622.5
21.81	1592.0	1621.6
21.82	1595.0	1620.7
21.83	1588.0	1619.8
21.84	1571.0	1618.9
21.85	1582.0	1618.0
21.86	1589.0	1617.1
21.87	1546.0	1616.2
21.88	1565.0	1615.3
21.89	1599.0	1614.4
21.9	1620.0	1613.5
21.91	1628.0	1612.6
21.92	1588.0	1611.7
21.93	1590.0	1610.8
21.94	1591.0	1609.9
21.95	1538.0	1609.0
21.96	1559.0	1608.1
21.97	1569.0	1607.2
21.98	1573.0	1606.3
21.99	1562.0	1605.4
22.0	1536.0	1604.5
22.01	1587.0	1603.6
22.02	1560.0	1602.7
22.03	1535.0	1601.8
22.04	1565.0	1600.9
22.05	1527.0	1600.0
22.06	1485.0	1599.1
22.07	1533.0	1598.2
22.08	1596.0	1597.3
22.09	1558.0	1596.4
22.1	1569.0	1595.5
22.11	1620.0	1594.6
22.12	1597.0	1593.7
22.13	1566.0	1592.8
22.14	1586.0	1591.8
22.15	1560.0	1590.9
22.16	1528.0	1590.0
22.17	1519.0	1589.1
22.18	1501.0	1588.2
22.19	1523.0	1587.3
22.2	1542.0	1586.4
22.21	1504.0	1585.5
22.22	1520.0	1584.6
22.23	1578.0	1583.7
22.24	1577.0	1582.8
22.25	1550.0	1581.9
22.26	1556.0	1581.0
22.27	1584.0	1580.0
22.28	1556.0	1579.1
22.29	1531.0	1578.2
22.3	1541.0	1577.3
22.31	1506.0	1576.4
22.32	1527.0	1575.5
22.33	1530.0	1574.6
22.34	1532.0	1573.7
22.35	1546.0	1572.8
22.36	1514.0	1571.9
22.37	1517.0	1570.9
22.38	1539.0	1570.0
22.39	1538.0	1569.1
22.4	1517.0	1568.2
22.41	1505.0	1567.3
22.42	1537.0	1566.4
22.43	1511.0	1565.5
22.44	1517.0	1564.6
22.45	1532.0	1563.7
22.46	1545.0	1562.7
22.47	1577.0	1561.8
22.48	1517.0	1560.9
22.49	1495.0	1560.0
22.5	1512.0	1559.1
22.51	1555.0	1558.2
22.52	1519.0	1557.3
22.53	1476.0	1556.3
22.54	1479.0	1555.4
22.55	1487.0	1554.5
22.56	1521.0	1553.6
22.57	1495.0	1552.7
22.58	1508.0	1551.8
22.59	1483.0	1550.9
22.6	1477.0	1549.9
22.61	1490.0	1549.0
22.62	1506.0	1548.1
22.63	1513.0	1547.2
22.64	1509.0	1546.3
22.65	1469.0	1545.4
22.66	1465.0	1544.5
22.67	1490.0	1543.5
22.68	1540.0	1542.6
22.69	1541.0	1541.7
22.7	1541.0	1540.8
22.71	1497.0	1539.9
22.72	1462.0	1539.0
22.73	1563.0	1538.0
22.74	1524.0	1537.1
22.75	1490.0	1536.2
22.76	1481.0	1535.3
22.77	1513.0	1534.4
22.78	1523.0	1533.5
22.79	1491.0	1532.5
22.8	1504.0	1531.6
22.81	1499.0	1530.7
22.82	1490.0	1529.8
22.83	1480.0	1528.9
22.84	1499.0	1528.0
22.85	1514.0	1527.0
22.86	1584.0	1526.1
22.87	1548.0	1525.2
22.88	1522.0	1524.3
22.89	1542.0	1523.4
22.9	1557.0	1522.5
22.91	1534.0	1521.5
22.92	1558.0	1520.6
22.93	1597.0	1519.7
22.94	1578.0	1518.8
22.95	1541.0	1517.9
22.96	1552.0	1516.9
22.97	1596.0	1516.0
22.98	1577.0	1515.1
22.99	1643.0	1514.2
23.0	1723.0	1513.3
23.01	1648.0	1512.4
23.02	1689.0	1511.4
23.03	1762.0	1510.5
23.04	1754.0	1509.6
23.05	1817.0	1508.7
23.06	1897.0	1507.8
23.07	1896.0	1506.8
23.08	1923.0	1505.9
23.09	1917.0	1505.0
23.1	1985.0	1504.1
23.11	1978.0	1503.2
23.12	1944.0	1502.2
23.13	1950.0	1501.3
23.14	1963.0	1500.4
23.15	1924.0	1499.5
23.16	1898.0	1498.6
23.17	1874.0	1497.6
23.18	1849.0	1496.7
23.19	1784.0	1495.8
23.2	1785.0	1494.9
23.21	1725.0	1494.0
23.22	1660.0	1493.0
23.23	1630.0	1492.1
23.24	1648.0	1491.2
23.25	1588.0	1490.3
23.26	1542.0	1489.4
23.27	1517.0	1488.4
23.28	1531.0	1487.5
23.29	1529.0	1486.6
23.3	1529.0	1485.7
23.31	1500.0	1484.8
23.32	1466.0	1483.9
23.33	1459.0	1482.9
23.34	1442.0	1482.0
23.35	1461.0	1481.1
23.36	1469.0	1480.2
23.37	1491.0	1479.3
23.38	1464.0	1478.3
23.39	1434.0	1477.4
23.4	1463.0	1476.5
23.41	1419.0	1475.6
23.42	1416.0	1474.7
23.43	1471.0	1473.7
23.44	1484.0	1472.8
23.45	1511.0	1471.9
23.46	1447.0	1471.0
23.47	1480.0	1470.1
23.48	1461.0	1469.1
23.49	1462.0	1468.2
23.5	1458.0	1467.3
23.51	1446.0	1466.4
23.52	1486.0	1465.5
23.53	1440.0	1464.5
23.54	1463.0	1463.6
23.55	1456.0	1462.7
23.56	1441.0	1461.8
23.57	1428.0	1460.9
23.58	1369.0	1459.9
23.59	1390.0	1459.0
23.6	1437.0	1458.1
23.61	1434.0	1457.2
23.62	1379.0	1456.3
23.63	1399.0	1455.4
23.64	1436.0	1454.4
23.65	1388.0	1453.5
23.66	1412.0	1452.6
23.67	1406.0	1451.7
23.68	1379.0	1450.8
23.69	1410.0	1449.8
23.7	1409.0	1448.9
23.71	1432.0	1448.0
23.72	1435.0	1447.1
23.73	1450.0	1446.2
23.74	1402.0	1445.3
23.75	1347.0	1444.3
23.76	1360.0	1443.4
23.77	1399.0	1442.5
23.78	1405.0	1441.6
23.79	1386.0	1440.7
23.8	1414.0	1439.7
23.81	1428.0	1438.8
23.82	1435.0	1437.9
23.83	1408.0	1437.0
23.84	1384.0	1436.1
23.85	1393.0	1435.2
23.86	1370.0	1434.2
23.87	1395.0	1433.3
23.88	1401.0	1432.4
23.89	1411.0	1431.5
23.9	1367.0	1430.6
23.91	1416.0	1429.7
23.92	1439.0	1428.7
23.93	1385.0	1427.8
23.94	1372.0	1426.9
23.95	1359.0	1426.0
23.96	1386.0	1425.1
23.97	1395.0	1424.2
23.98	1370.0	1423.3
23.99	1375.0	1422.3
24.0	1387.0	1421.4
24.01	1388.0	1420.5
24.02	1355.0	1419.6
24.03	1363.0	1418.7
24.04	1398.0	1417.8
24.05	1420.0	1416.8
24.06	1410.0	1415.9
24.07	1403.0	1415.0
24.08	1358.0	1414.1
24.09	1355.0	1413.2
24.1	1375.0	1412.3
24.11	1399.0	1411.4
24.12	1368.0	1410.5
24.13	1394.0	1409.5
24.14	1344.0	1408.6
24.15	1376.0	1407.7
24.16	1368.0	1406.8
24.17	1406.0	1405.9
24.18	1395.0	1405.0
24.19	1399.0	1404.1
24.2	1373.0	1403.1
24.21	1384.0	1402.2
24.22	1381.0	1401.3
24.23	1395.0	1400.4
24.24	1430.0	1399.5
24.25	1439.0	1398.6
24.26	1432.0	1397.7
24.27	1422.0	1396.8
24.28	1409.0	1395.9
24.29	1407.0	1394.9
24.3	1390.0	1394.0
24.31	1386.0	1393.1
24.32	1348.0	1392.2
24.33	1369.0	1391.3
24.34	1400.0	1390.4
24.35	1399.0	1389.5
24.36	1391.0	1388.6
24.37	1400.0	1387.7
24.38	1404.0	1386.8
24.39	1366.0	1385.9
24.4	1385.0	1384.9
24.41	1413.0	1384.0
24.42	1379.0	1383.1
24.43	1355.0	1382.2
24.44	1349.0	1381.3
24.45	1335.0	1380.4
24.46	1340.0	1379.5
24.47	1392.0	1378.6
24.48	1388.0	1377.7
24.49	1382.0	1376.8
24.5	1383.0	1375.9
24.51	1402.0	1375.0
24.52	1438.0	1374.1
24.53	1428.0	1373.2
24.54	1433.0	1372.3
24.55	1430.0	1371.3
24.56	1409.0	1370.4
24.57	1444.0	1369.5
24.58	1420.0	1368.6
24.59	1390.0	1367.7
24.6	1393.0	1366.8
24.61	1448.0	1365.9
24.62	1447.0	1365.0
24.63	1413.0	1364.1
24.64	1422.0	1363.2
24.65	1429.0	1362.3
24.66	1424.0	1361.4
24.67	1434.0	1360.5
24.68	1457.0	1359.6
24.69	1442.0	1358.7
24.7	1429.0	1357.8
24.71	1450.0	1356.9
24.72	1481.0	1356.0
24.73	1486.0	1355.1
24.74	1476.0	1354.2
24.75	1531.0	1353.3
24.76	1523.0	1352.4
24.77	1518.0	1351.5
24.78	1480.0	1350.6
24.79	1483.0	1349.7
24.8	1518.0	1348.8
24.81	1551.0	1347.9
24.82	1530.0	1347.0
24.83	1523.0	1346.1
24.84	1533.0	1345.2
24.85	1569.0	1344.3
24.86	1587.0	1343.4
24.87	1563.0	1342.5
24.88	1551.0	1341.6
24.89	1572.0	1340.7
24.9	1617.0	1339.8
24.91	1661.0	1338.9
24.92	1688.0	1338.1
24.93	1657.0	1337.2
24.94	1698.0	1336.3
24.95	1727.0	1335.4
24.96	1741.0	1334.5
24.97	1780.0	1333.6
24.98	1791.0	1332.7
24.99	1791.0	1331.8
25.0	1830.0	1330.9
25.01	1873.0	1330.0
25.02	1836.0	1329.1
25.03	1829.0	1328.2
25.04	1907.0	1327.3
25.05	1904.0	1326.4
25.06	1911.0	1325.6
25.07	1962.0	1324.7
25.08	2027.0	1323.8
25.09	2045.0	1322.9
25.1	2022.0	1322.0
25.11	2029.0	1321.1
25.12	2104.0	1320.2
25.13	2139.0	1319.3
25.14	2195.0	1318.4
25.15	2262.0	1317.6
25.16	2263.0	1316.7
25.17	2253.0	1315.8
25.18	2273.0	1314.9
25.19	2297.0	1314.0
25.2	2340.0	1313.1
25.21	2373.0	1312.2
25.22	2346.0	1311.4
25.23	2341.0	1310.5
25.24	2381.0	1309.6
25.25	2429.0	1308.7
25.26	2476.0	1307.8
25.27	2453.0	1306.9
25.28	2449.0	1306.1
25.29	2521.0	1305.2
25.3	2524.0	1304.3
25.31	2542.0	1303.4
25.32	2561.0	1302.5
25.33	2498.0	1301.7
25.34	2463.0	1300.8
25.35	2422.0	1299.9
25.36	2369.0	1299.0
25.37	2395.0	1298.1
25.38	2369.0	1297.3
25.39	2335.0	1296.4
25.4	2326.0	1295.5
25.41	2325.0	1294.6
25.42	2287.0	1293.7
25.43	2233.0	1292.9
25.44	2157.0	1292.0
25.45	2129.0	1291.1
25.46	2127.0	1290.2
25.47	2095.0	1289.4
25.48	2048.0	1288.5
25.49	2019.0	1287.6
25.5	1996.0	1286.7
25.51	1958.0	1285.9
25.52	1925.0	1285.0
25.53	1908.0	1284.1
25.54	1872.0	1283.3
25.55	1852.0	1282.4
25.56	1815.0	1281.5
25.57	1789.0	1280.6
25.58	1797.0	1279.8
25.59	1799.0	1278.9
25.6	1783.0	1278.0
25.61	1724.0	1277.2
25.62	1680.0	1276.3
25.63	1648.0	1275.4
25.64	1651.0	1274.6
25.65	1634.0	1273.7
25.66	1631.0	1272.8
25.67	1600.0	1272.0
25.68	1563.0	1271.1
25.69	1559.0	1270.2
25.7	1541.0	1269.4
25.71	1482.0	1268.5
25.72	1470.0	1267.6
25.73	1495.0	1266.8
25.74	1483.0	1265.9
25.75	1462.0	1265.1
25.76	1500.0	1264.2
25.77	1515.0	1263.3
25.78	1496.0	1262.5
25.79	1453.0	1261.6
25.8	1398.0	1260.7
25.81	1406.0	1259.9
25.82	1432.0	1259.0
25.83	1428.0	1258.2
25.84	1403.0	1257.3
25.85	1356.0	1256.5
25.86	1374.0	1255.6
25.87	1373.0	1254.7
25.88	1338.0	1253.9
25.89	1345.0	1253.0
25.9	1397.0	1252.2
25.91	1398.0	1251.3
25.92	1375.0	1250.5
25.93	1338.0	1249.6
25.94	1323.0	1248.8
25.95	1306.0	1247.9
25.96	1314.0	1247.1
25.97	1314.0	1246.2
25.98	1313.0	1245.4
25.99	1286.0	1244.5
26.0	1280.0	1243.7
26.01	1285.0	1242.8
26.02	1263.0	1242.0
26.03	1270.0	1241.1
26.04	1275.0	1240.3
26.05	1285.0	1239.4
26.06	1290.0	1238.6
26.07	1291.0	1237.7
26.08	1287.0	1236.9
26.09	1264.0	1236.0
26.1	1270.0	1235.2
26.11	1298.0	1234.3
26.12	1294.0	1233.5
26.13	1279.0	1232.6
26.14	1271.0	1231.8
26.15	1259.0	1231.0
26.16	1253.0	1230.1
26.17	1266.0	1229.3
26.18	1269.0	1228.4
26.19	1256.0	1227.6
26.2	1244.0	1226.8
26.21	1237.0	1225.9
26.22	1260.0	1225.1
26.23	1289.0	1224.2
26.24	1264.0	1223.4
26.25	1232.0	1222.6
26.26	1225.0	1221.7
26.27	1220.0	1220.9
26.28	1228.0	1220.1
26.29	1232.0	1219.2
26.3	1238.0	1218.4
26.31	1266.0	1217.6
26.32	1254.0	1216.7
26.33	1208.0	1215.9
26.34	1206.0	1215.1
26.35	1231.0	1214.2
26.36	1228.0	1213.4
26.37	1242.0	1212.6
26.38	1240.0	1211.8
26.39	1248.0	1210.9
26.4	1235.0	1210.1
26.41	1229.0	1209.3
26.42	1231.0	1208.4
26.43	1219.0	1207.6
26.44	1210.0	1206.8
26.45	1220.0	1206.0
26.46	1251.0	1205.1
26.47	1259.0	1204.3
26.48	1224.0	1203.5
26.49	1198.0	1202.7
26.5	1227.0	1201.9
26.51	1237.0	1201.0
26.52	1223.0	1200.2
26.53	1240.0	1199.4
26.54	1231.0	1198.6
26.55	1233.0	1197.8
26.56	1225.0	1196.9
26.57	1198.0	1196.1
26.58	1191.0	1195.3
26.59	1194.0	1194.5
26.6	1189.0	1193.7
26.61	1195.0	1192.9
26.62	1243.0	1192.0
26.63	1269.0	1191.2
26.64	1245.0	1190.4
26.65	1212.0	1189.6
26.66	1178.0	1188.8
26.67	1172.0	1188.0
26.68	1179.0	1187.2
26.69	1180.0	1186.4
26.7	1176.0	1185.6
26.71	1191.0	1184.7
26.72	1210.0	1183.9
26.73	1198.0	1183.1
26.74	1188.0	1182.3
26.75	1191.0	1181.5
26.76	1219.0	1180.7
26.77	1203.0	1179.9
26.78	1159.0	1179.1
26.79	1153.0	1178.3
26.8	1186.0	1177.5
26.81	1214.0	1176.7
26.82	1198.0	1175.9
26.83	1175.0	1175.1
26.84	1176.0	1174.3
26.85	1204.0	1173.5
26.86	1221.0	1172.7
26.87	1210.0	1171.9
26.88	1176.0	1171.1
26.89	1156.0	1170.3
26.9	1175.0	1169.5
26.91	1202.0	1168.7
26.92	1226.0	1167.9
26.93	1216.0	1167.1
26.94	1182.0	1166.3
26.95	1181.0	1165.5
26.96	1187.0	1164.8
26.97	1183.0	1164.0
26.98	1174.0	1163.2
26.99	1161.0	1162.4
27.0	1159.0	1161.6
27.01	1148.0	1160.8
27.02	1154.0	1160.0
27.03	1164.0	1159.2
27.04	1164.0	1158.5
27.05	1176.0	1157.7
27.06	1187.0	1156.9
27.07	1175.0	1156.1
27.08	1168.0	1155.3
27.09	1159.0	1154.5
27.1	1156.0	1153.8
27.11	1152.0	1153.0
27.12	1142.0	1152.2
27.13	1130.0	1151.4
27.14	1127.0	1150.6
27.15	1146.0	1149.9
27.16	1150.0	1149.1
27.17	1146.0	1148.3
27.18	1157.0	1147.5
27.19	1168.0	1146.8
27.2	1159.0	1146.0
27.21	1173.0	1145.2
27.22	1186.0	1144.4
27.23	1176.0	1143.7
27.24	1169.0	1142.9
27.25	1188.0	1142.1
27.26	1190.0	1141.4
27.27	1183.0	1140.6
27.28	1199.0	1139.8
27.29	1193.0	1139.1
27.3	1183.0	1138.3
27.31	1166.0	1137.5
27.32	1139.0	1136.8
27.33	1147.0	1136.0
27.34	1168.0	1135.2
27.35	1178.0	1134.5
27.36	1194.0	1133.7
27.37	1168.0	1132.9
27.38	1147.0	1132.2
27.39	1171.0	1131.4
27.4	1177.0	1130.7
27.41	1162.0	1129.9
27.42	1143.0	1129.2
27.43	1141.0	1128.4
27.44	1150.0	1127.6
27.45	1153.0	1126.9
27.46	1148.0	1126.1
27.47	1144.0	1125.4
27.48	1171.0	1124.6
27.49	1166.0	1123.9
27.5	1137.0	1123.1
27.51	1125.0	1122.4
27.52	1126.0	1121.6
27.53	1138.0	1120.9
27.54	1129.0	1120.1
27.55	1121.0	1119.4
27.56	1143.0	1118.6
27.57	1159.0	1117.9
27.58	1158.0	1117.2
27.59	1144.0	1116.4
27.6	1140.0	1115.7
27.61	1136.0	1114.9
27.62	1116.0	1114.2
27.63	1141.0	1113.5
27.64	1147.0	1112.7
27.65	1121.0	1112.0
27.66	1130.0	1111.2
27.67	1168.0	1110.5
27.68	1165.0	1109.8
27.69	1127.0	1109.0
27.7	1141.0	1108.3
27.71	1144.0	1107.6
27.72	1140.0	1106.8
27.73	1138.0	1106.1
27.74	1115.0	1105.4
27.75	1115.0	1104.6
27.76	1126.0	1103.9
27.77	1132.0	1103.2
27.78	1126.0	1102.5
27.79	1127.0	1101.7
27.8	1150.0	1101.0
27.81	1158.0	1100.3
27.82	1144.0	1099.6
27.83	1125.0	1098.8
27.84	1119.0	1098.1
27.85	1130.0	1097.4
27.86	1116.0	1096.7
27.87	1106.0	1096.0
27.88	1102.0	1095.2
27.89	1089.0	1094.5
27.9	1072.0	1093.8
27.91	1094.0	1093.1
27.92	1111.0	1092.4
27.93	1116.0	1091.7
27.94	1111.0	1090.9
27.95	1082.0	1090.2
27.96	1095.0	1089.5
27.97	1111.0	1088.8
27.98	1100.0	1088.1
27.99	1127.0	1087.4
28.0	1124.0	1086.7
28.01	1110.0	1086.0
28.02	1120.0	1085.3
28.03	1120.0	1084.6
28.04	1105.0	1083.9
28.05	1111.0	1083.2
28.06	1134.0	1082.5
28.07	1121.0	1081.8
28.08	1081.0	1081.1
28.09	1074.0	1080.4
28.1	1099.0	1079.7
28.11	1069.0	1079.0
28.12	1071.0	1078.3
28.13	1072.0	1077.6
28.14	1088.0	1076.9
28.15	1106.0	1076.2
28.16	1103.0	1075.5
28.17	1069.0	1074.8
28.18	1083.0	1074.1
28.19	1096.0	1073.4
28.2	1094.0	1072.7
28.21	1092.0	1072.0
28.22	1094.0	1071.4
28.23	1102.0	1070.7
28.24	1086.0	1070.0
28.25	1079.0	1069.3
28.26	1096.0	1068.6
28.27	1104.0	1067.9
28.28	1078.0	1067.3
28.29	1034.0	1066.6
28.3	1053.0	1065.9
28.31	1095.0	1065.2
28.32	1085.0	1064.5
28.33	1064.0	1063.9
28.34	1069.0	1063.2
28.35	1097.0	1062.5
28.36	1101.0	1061.8
28.37	1084.0	1061.2
28.38	1074.0	1060.5
28.39	1064.0	1059.8
28.4	1076.0	1059.2
28.41	1087.0	1058.5
28.42	1066.0	1057.8
28.43	1066.0	1057.1
28.44	1072.0	1056.5
28.45	1053.0	1055.8
28.46	1067.0	1055.2
28.47	1083.0	1054.5
28.48	1067.0	1053.8
28.49	1040.0	1053.2
28.5	1026.0	1052.5
28.51	1033.0	1051.8
28.52	1049.0	1051.2
28.53	1057.0	1050.5
28.54	1057.0	1049.9
28.55	1069.0	1049.2
28.56	1089.0	1048.6
28.57	1100.0	1047.9
28.58	1094.0	1047.3
28.59	1076.0	1046.6
28.6	1123.0	1046.0
28.61	1129.0	1045.3
28.62	1160.0	1044.7
28.63	1199.0	1044.0
28.64	1201.0	1043.4
28.65	1214.0	1042.7
28.66	1209.0	1042.1
28.67	1217.0	1041.4
28.68	1205.0	1040.8
28.69	1197.0	1040.1
28.7	1212.0	1039.5
28.71	1207.0	1038.9
28.72	1177.0	1038.2
28.73	1157.0	1037.6
28.74	1174.0	1036.9
28.75	1174.0	1036.3
28.76	1116.0	1035.7
28.77	1090.0	1035.0
28.78	1070.0	1034.4
28.79	1058.0	1033.8
28.8	1050.0	1033.1
28.81	1050.0	1032.5
28.82	1073.0	1031.9
28.83	1077.0	1031.2
28.84	1079.0	1030.6
28.85	1071.0	1030.0
28.86	1074.0	1029.4
28.87	1068.0	1028.7
28.88	1031.0	1028.1
28.89	1026.0	1027.5
28.9	1018.0	1026.9
28.91	1014.0	1026.2
28.92	1046.0	1025.6
28.93	1053.0	1025.0
28.94	1069.0	1024.4
28.95	1040.0	1023.8
28.96	1021.0	1023.1
28.97	1015.0	1022.5
28.98	1012.0	1021.9
28.99	1004.0	1021.3
29.0	1026.0	1020.7
29.01	1033.0	1020.1
29.02	1028.0	1019.4
29.03	1019.0	1018.8
29.04	988.0	1018.2
29.05	1025.0	1017.6
29.06	1058.0	1017.0
29.07	1041.0	1016.4
29.08	995.0	1015.8
29.09	993.0	1015.2
29.1	989.0	1014.6
29.11	988.0	1014.0
29.12	1011.0	1013.4
29.13	1057.0	1012.8
29.14	1031.0	1012.2
29.15	1011.0	1011.6
29.16	1007.0	1011.0
29.17	997.0	1010.4
29.18	1032.0	1009.8
29.19	1054.0	1009.2
29.2	1053.0	1008.6
29.21	1026.0	1008.0
29.22	1025.0	1007.4
29.23	1041.0	1006.8
29.24	1059.0	1006.2
29.25	1030.0	1005.6
29.26	1006.0	1005.0
29.27	1030.0	1004.4
29.28	1040.0	1003.8
29.29	1027.0	1003.2
29.3	1000.0	1002.7
29.31	1001.0	1002.1
29.32	1015.0	1001.5
29.33	1029.0	1000.9
29.34	994.0	1000.3
29.35	972.0	999.7
29.36	1003.0	999.1
29.37	1018.0	998.6
29.38	1020.0	998.0
29.39	1030.0	997.4
29.4	1016.0	996.8
29.41	1007.0	996.2
29.42	1011.0	995.7
29.43	1004.0	995.1
29.44	997.0	994.5
29.45	991.0	993.9
29.46	1005.0	993.4
29.47	1004.0	992.8
29.48	1016.0	992.2
29.49	1006.0	991.6
29.5	991.0	991.1
29.51	994.0	990.5
29.52	1031.0	989.9
29.53	1029.0	989.4
29.54	990.0	988.8
29.55	980.0	988.2
29.56	988.0	987.7
29.57	1000.0	987.1
29.58	981.0	986.5
29.59	993.0	986.0
29.6	991.0	985.4
29.61	1010.0	984.8
29.62	1005.0	984.3
29.63	1012.0	983.7
29.64	970.0	983.2
29.65	948.0	982.6
29.66	939.0	982.1
29.67	988.0	981.5
29.68	993.0	980.9
29.69	1018.0	980.4
29.7	1036.0	979.8
29.71	980.0	979.3
29.72	990.0	978.7
29.73	1013.0	978.2
29.74	1005.0	977.6
29.75	1008.0	977.1
29.76	972.0	976.5
29.77	985.0	976.0
29.78	999.0	975.4
29.79	991.0	974.9
29.8	996.0	974.3
29.81	1019.0	973.8
29.82	992.0	973.2
29.83	989.0	972.7
29.84	956.0	972.2
29.85	996.0	971.6
29.86	1008.0	971.1
29.87	988.0	970.5
29.88	991.0	970.0
29.89	983.0	969.5
29.9	996.0	968.9
29.91	993.0	968.4
29.92	1000.0	967.8
29.93	988.0	967.3
29.94	988.0	966.8
29.95	994.0	966.2
29.96	1003.0	965.7
29.97	998.0	965.2
29.98	973.0	964.6
29.99	923.0	964.1
30.0	941.0	963.6
30.01	981.0	963.1
30.02	984.0	962.5
30.03	1005.0	962.0
30.04	996.0	961.5
30.05	987.0	960.9
30.06	1010.0	960.4
30.07	1010.0	959.9
30.08	984.0	959.4
30.09	955.0	958.9
30.1	948.0	958.3
30.11	949.0	957.8
30.12	967.0	957.3
30.13	973.0	956.8
30.14	946.0	956.3
30.15	961.0	955.7
30.16	971.0	955.2
30.17	977.0	954.7
30.18	941.0	954.2
30.19	935.0	953.7
30.2	970.0	953.2
30.21	985.0	952.6
30.22	984.0	952.1
30.23	1027.0	951.6
30.24	995.0	951.1
30.25	954.0	950.6
30.26	967.0	950.1
30.27	986.0	949.6
30.28	963.0	949.1
30.29	968.0	948.6
30.3	988.0	948.1
30.31	970.0	947.5
30.32	976.0	947.0
30.33	956.0	946.5
30.34	921.0	946.0
30.35	922.0	945.5
30.36	938.0	945.0
30.37	953.0	944.5
30.38	970.0	944.0
30.39	971.0	943.5
30.4	950.0	943.0
30.41	955.0	942.5
30.42	950.0	942.0
30.43	911.0	941.5
30.44	943.0	941.0
30.45	940.0	940.6
30.46	939.0	940.1
30.47	937.0	939.6
30.48	953.0	939.1
30.49	914.0	938.6
30.5	921.0	938.1
30.51	982.0	937.6
30.52	959.0	937.1
30.53	925.0	936.6
30.54	968.0	936.1
30.55	950.0	935.6
30.56	899.0	935.2
30.57	915.0	934.7
30.58	931.0	934.2
30.59	950.0	933.7
30.6	963.0	933.2
30.61	935.0	932.7
30.62	930.0	932.3
30.63	933.0	931.8
30.64	937.0	931.3
30.65	923.0	930.8
30.66	921.0	930.3
30.67	932.0	929.9
30.68	931.0	929.4
30.69	920.0	928.9
30.7	917.0	928.4
30.71	925.0	927.9
30.72	943.0	927.5
30.73	945.0	927.0
30.74	924.0	926.5
30.75	949.0	926.0
30.76	944.0	925.6
30.77	936.0	925.1
30.78	947.0	924.6
30.79	942.0	924.2
30.8	915.0	923.7
30.81	949.0	923.2
30.82	957.0	922.8
30.83	946.0	922.3
30.84	963.0	921.8
30.85	936.0	921.4
30.86	915.0	920.9
30.87	915.0	920.4
30.88	903.0	920.0
30.89	910.0	919.5
30.9	899.0	919.0
30.91	921.0	918.6
30.92	938.0	918.1
30.93	939.0	917.7
30.94	957.0	917.2
30.95	927.0	916.7
30.96	911.0	916.3
30.97	966.0	915.8
30.98	933.0	915.4
30.99	957.0	914.9
31.0	957.0	914.5
31.01	902.0	914.0
31.02	920.0	913.6
31.03	933.0	913.1
31.04	938.0	912.6
31.05	929.0	912.2
31.06	900.0	911.7
31.07	882.0	911.3
31.08	901.0	910.8
31.09	929.0	910.4
31.1	920.0	909.9
31.11	915.0	909.5
31.12	933.0	909.1
31.13	964.0	908.6
31.14	958.0	908.2
31.15	947.0	907.7
31.16	947.0	907.3
31.17	923.0	906.8
31.18	950.0	906.4
31.19	942.0	905.9
31.2	910.0	905.5
31.21	921.0	905.1
31.22	905.0	904.6
31.23	916.0	904.2
31.24	917.0	903.7
31.25	944.0	903.3
31.26	937.0	902.9
31.27	927.0	902.4
31.28	914.0	902.0
31.29	916.0	901.6
31.3	927.0	901.1
31.31	919.0	900.7
31.32	929.0	900.3
31.33	928.0	899.8
31.34	922.0	899.4
31.35	894.0	899.0
31.36	867.0	898.5
31.37	908.0	898.1
31.38	905.0	897.7
31.39	922.0	897.2
31.4	925.0	896.8
31.41	920.0	896.4
31.42	928.0	896.0
31.43	915.0	895.5
31.44	908.0	895.1
31.45	913.0	894.7
31.46	929.0	894.3
31.47	927.0	893.8
31.48	919.0	893.4
31.49	901.0	893.0
31.5	871.0	892.6
31.51	891.0	892.2
31.52	926.0	891.7
31.53	895.0	891.3
31.54	913.0	890.9
31.55	949.0	890.5
31.56	930.0	890.1
31.57	938.0	889.6
31.58	936.0	889.2
31.59	907.0	888.8
31.6	898.0	888.4
31.61	916.0	888.0
31.62	913.0	887.6
31.63	915.0	887.2
31.64	910.0	886.7
31.65	908.0	886.3
31.66	891.0	885.9
31.67	894.0	885.5
31.68	911.0	885.1
31.69	893.0	884.7
31.7	912.0	884.3
31.71	915.0	883.9
31.72	885.0	883.5
31.73	946.0	883.1
31.74	973.0	882.7
31.75	909.0	882.2
31.76	913.0	881.8
31.77	936.0	881.4
31.78	960.0	881.0
31.79	951.0	880.6
31.8	905.0	880.2
31.81	897.0	879.8
31.82	925.0	879.4
31.83	913.0	879.0
31.84	931.0	878.6
31.85	944.0	878.2
31.86	932.0	877.8
31.87	925.0	877.4
31.88	923.0	877.0
31.89	935.0	876.6
31.9	963.0	876.2
31.91	936.0	875.8
31.92	929.0	875.5
31.93	906.0	875.1
31.94	937.0	874.7
31.95	933.0	874.3
31.96	930.0	873.9
31.97	907.0	873.5
31.98	912.0	873.1
31.99	929.0	872.7
32.0	862.0	872.3
32.01	883.0	871.9
32.02	900.0	871.5
32.03	914.0	871.1
32.04	915.0	870.8
32.05	917.0	870.4
32.06	937.0	870.0
32.07	939.0	869.6
32.08	985.0	869.2
32.09	974.0	868.8
32.1	926.0	868.4
32.11	894.0	868.1
32.12	925.0	867.7
32.13	953.0	867.3
32.14	982.0	866.9
32.15	933.0	866.5
32.16	917.0	866.2
32.17	907.0	865.8
32.18	928.0	865.4
32.19	941.0	865.0
32.2	934.0	864.6
32.21	930.0	864.3
32.22	927.0	863.9
32.23	956.0	863.5
32.24	950.0	863.1
32.25	959.0	862.8
32.26	958.0	862.4
32.27	947.0	862.0
32.28	931.0	861.6
32.29	942.0	861.3
32.3	972.0	860.9
32.31	988.0	860.5
32.32	949.0	860.1
32.33	935.0	859.8
32.34	953.0	859.4
32.35	988.0	859.0
32.36	1013.0	858.7
32.37	1025.0	858.3
32.38	987.0	857.9
32.39	973.0	857.6
32.4	986.0	857.2
32.41	989.0	856.8
32.42	994.0	856.5
32.43	1011.0	856.1
32.44	1037.0	855.7
32.45	1032.0	855.4
32.46	1052.0	855.0
32.47	1055.0	854.6
32.48	1061.0	854.3
32.49	1054.0	853.9
32.5	1042.0	853.6
32.51	1060.0	853.2
32.52	1104.0	852.8
32.53	1101.0	852.5
32.54	1107.0	852.1
32.55	1107.0	851.8
32.56	1120.0	851.4
32.57	1127.0	851.0
32.58	1134.0	850.7
32.59	1151.0	850.3
32.6	1208.0	850.0
32.61	1199.0	849.6
32.62	1200.0	849.3
32.63	1248.0	848.9
32.64	1271.0	848.6
32.65	1290.0	848.2
32.66	1313.0	847.8
32.67	1367.0	847.5
32.68	1388.0	847.1
32.69	1423.0	846.8
32.7	1478.0	846.4
32.71	1542.0	846.1
32.72	1617.0	845.7
32.73	1645.0	845.4
32.74	1733.0	845.0
32.75	1798.0	844.7
32.76	1892.0	844.4
32.77	1955.0	844.0
32.78	2063.0	843.7
32.79	2197.0	843.3
32.8	2236.0	843.0
32.81	2446.0	842.6
32.82	2680.0	842.3
32.83	2832.0	841.9
32.84	2998.0	841.6
32.85	3199.0	841.3
32.86	3406.0	840.9
32.87	3589.0	840.6
32.88	3757.0	840.2
32.89	3974.0	839.9
32.9	4177.0	839.5
32.91	4403.0	839.2
32.92	4565.0	838.9
32.93	4594.0	838.5
32.94	4538.0	838.2
32.95	4479.0	837.9
32.96	4379.0	837.5
32.97	4246.0	837.2
32.98	4128.0	836.8
32.99	3984.0	836.5
33.0	3784.0	836.2
33.01	3669.0	835.8
33.02	3505.0	835.5
33.03	3355.0	835.2
33.04	3182.0	834.8
33.05	2913.0	834.5
33.06	2663.0	834.2
33.07	2497.0	833.8
33.08	2372.0	833.5
33.09	2190.0	833.2
33.1	2001.0	832.9
33.11	1887.0	832.5
33.12	1844.0	832.2
33.13	1749.0	831.9
33.14	1645.0	831.5
33.15	1563.0	831.2
33.16	1511.0	830.9
33.17	1489.0	830.6
33.18	1462.0	830.2
33.19	1364.0	829.9
33.2	1312.0	829.6
33.21	1314.0	829.3
33.22	1273.0	828.9
33.23	1226.0	828.6
33.24	1206.0	828.3
33.25	1184.0	828.0
33.26	1147.0	827.6
33.27	1129.0	827.3
33.28	1134.0	827.0
33.29	1137.0	826.7
33.3	1133.0	826.4
33.31	1133.0	826.0
33.32	1091.0	825.7
33.33	1057.0	825.4
33.34	1044.0	825.1
33.35	1028.0	824.8
33.36	994.0	824.4
33.37	1018.0	824.1
33.38	1034.0	823.8
33.39	988.0	823.5
33.4	982.0	823.2
33.41	990.0	822.9
33.42	988.0	822.5
33.43	977.0	822.2
33.44	973.0	821.9
33.45	976.0	821.6
33.46	957.0	821.3
33.47	924.0	821.0
33.48	919.0	820.7
33.49	927.0	820.4
33.5	921.0	820.0
33.51	914.0	819.7
33.52	938.0	819.4
33.53	936.0	819.1
33.54	921.0	818.8
33.55	916.0	818.5
33.56	888.0	818.2
33.57	864.0	817.9
33.58	898.0	817.6
33.59	915.0	817.3
33.6	921.0	817.0
33.61	905.0	816.7
33.62	883.0	816.4
33.63	903.0	816.0
33.64	887.0	815.7
33.65	877.0	815.4
33.66	886.0	815.1
33.67	857.0	814.8
33.68	843.0	814.5
33.69	875.0	814.2
33.7	846.0	813.9
33.71	830.0	813.6
33.72	864.0	813.3
33.73	861.0	813.0
33.74	876.0	812.7
33.75	858.0	812.4
33.76	865.0	812.1
33.77	870.0	811.8
33.78	884.0	811.5
33.79	891.0	811.2
33.8	888.0	810.9
33.81	863.0	810.6
33.82	844.0	810.3
33.83	818.0	810.0
33.84	854.0	809.7
33.85	854.0	809.4
33.86	858.0	809.1
33.87	851.0	808.9
33.88	849.0	808.6
33.89	861.0	808.3
33.9	878.0	808.0
33.91	868.0	807.7
33.92	844.0	807.4
33.93	853.0	807.1
33.94	855.0	806.8
33.95	870.0	806.5
33.96	883.0	806.2
33.97	862.0	805.9
33.98	865.0	805.6
33.99	868.0	805.3
34.0	851.0	805.1
34.01	867.0	804.8
34.02	855.0	804.5
34.03	835.0	804.2
34.04	868.0	803.9
34.05	862.0	803.6
34.06	883.0	803.3
34.07	874.0	803.0
34.08	846.0	802.8
34.09	817.0	802.5
34.1	825.0	802.2
34.11	842.0	801.9
34.12	837.0	801.6
34.13	857.0	801.3
34.14	869.0	801.0
34.15	866.0	800.8
34.16	848.0	800.5
34.17	816.0	800.2
34.18	815.0	799.9
34.19	843.0	799.6
34.2	840.0	799.4
34.21	849.0	799.1
34.22	852.0	798.8
34.23	833.0	798.5
34.24	838.0	798.2
34.25	847.0	797.9
34.26	826.0	797.7
34.27	809.0	797.4
34.28	823.0	797.1
34.29	838.0	796.8
34.3	826.0	796.6
34.31	793.0	796.3
34.32	805.0	796.0
34.33	811.0	795.7
34.34	796.0	795.4
34.35	777.0	795.2
34.36	791.0	794.9
34.37	832.0	794.6
34.38	844.0	794.3
34.39	823.0	794.1
34.4	826.0	793.8
34.41	838.0	793.5
34.42	833.0	793.3
34.43	836.0	793.0
34.44	821.0	792.7
34.45	818.0	792.4
34.46	825.0	792.2
34.47	838.0	791.9
34.48	819.0	791.6
34.49	804.0	791.3
34.5	810.0	791.1
34.51	825.0	790.8
34.52	824.0	790.5
34.53	842.0	790.3
34.54	846.0	790.0
34.55	817.0	789.7
34.56	822.0	789.5
34.57	854.0	789.2
34.58	858.0	788.9
34.59	868.0	788.7
34.6	844.0	788.4
34.61	821.0	788.1
34.62	818.0	787.9
34.63	814.0	787.6
34.64	813.0	787.3
34.65	816.0	787.1
34.66	827.0	786.8
34.67	815.0	786.5
34.68	812.0	786.3
34.69	836.0	786.0
34.7	836.0	785.7
34.71	834.0	785.5
34.72	818.0	785.2
34.73	808.0	785.0
34.74	796.0	784.7
34.75	791.0	784.4
34.76	809.0	784.2
34.77	806.0	783.9
34.78	792.0	783.7
34.79	798.0	783.4
34.8	809.0	783.1
34.81	809.0	782.9
34.82	829.0	782.6
34.83	850.0	782.4
34.84	829.0	782.1
34.85	797.0	781.8
34.86	788.0	781.6
34.87	818.0	781.3
34.88	827.0	781.1
34.89	811.0	780.8
34.9	829.0	780.6
34.91	846.0	780.3
34.92	841.0	780.0
34.93	836.0	779.8
34.94	813.0	779.5
34.95	795.0	779.3
34.96	805.0	779.0
34.97	799.0	778.8
34.98	806.0	778.5
34.99	809.0	778.3
35.0	824.0	778.0
35.01	824.0	777.8
35.02	816.0	777.5
35.03	811.0	777.3
35.04	810.0	777.0
35.05	830.0	776.8
35.06	844.0	776.5
35.07	842.0	776.3
35.08	841.0	776.0
35.09	821.0	775.8
35.1	802.0	775.5
35.11	807.0	775.3
35.12	807.0	775.0
35.13	798.0	774.8
35.14	816.0	774.5
35.15	842.0	774.3
35.16	837.0	774.0
35.17	803.0	773.8
35.18	795.0	773.5
35.19	790.0	773.3
35.2	792.0	773.0
35.21	788.0	772.8
35.22	781.0	772.5
35.23	792.0	772.3
35.24	813.0	772.1
35.25	825.0	771.8
35.26	827.0	771.6
35.27	819.0	771.3
35.28	810.0	771.1
35.29	802.0	770.8
35.3	841.0	770.6
35.31	857.0	770.4
35.32	837.0	770.1
35.33	802.0	769.9
35.34	813.0	769.6
35.35	832.0	769.4
35.36	832.0	769.2
35.37	834.0	768.9
35.38	859.0	768.7
35.39	861.0	768.4
35.4	845.0	768.2
35.41	850.0	768.0
35.42	842.0	767.7
35.43	828.0	767.5
35.44	830.0	767.2
35.45	835.0	767.0
35.46	840.0	766.8
35.47	858.0	766.5
35.48	870.0	766.3
35.49	851.0	766.1
35.5	843.0	765.8
35.51	837.0	765.6
35.52	832.0	765.4
35.53	848.0	765.1
35.54	851.0	764.9
35.55	877.0	764.7
35.56	898.0	764.4
35.57	908.0	764.2
35.58	897.0	764.0
35.59	875.0	763.7
35.6	870.0	763.5
35.61	890.0	763.3
35.62	910.0	763.0
35.63	890.0	762.8
35.64	889.0	762.6
35.65	929.0	762.3
35.66	936.0	762.1
35.67	914.0	761.9
35.68	904.0	761.6
35.69	909.0	761.4
35.7	918.0	761.2
35.71	935.0	761.0
35.72	929.0	760.7
35.73	891.0	760.5
35.74	873.0	760.3
35.75	877.0	760.1
35.76	901.0	759.8
35.77	907.0	759.6
35.78	897.0	759.4
35.79	896.0	759.1
35.8	893.0	758.9
35.81	885.0	758.7
35.82	886.0	758.5
35.83	895.0	758.2
35.84	891.0	758.0
35.85	879.0	757.8
35.86	887.0	757.6
35.87	909.0	757.3
35.88	922.0	757.1
35.89	935.0	756.9
35.9	926.0	756.7
35.91	935.0	756.5
35.92	941.0	756.2
35.93	918.0	756.0
35.94	929.0	755.8
35.95	930.0	755.6
35.96	927.0	755.4
35.97	923.0	755.1
35.98	899.0	754.9
35.99	885.0	754.7
36.0	905.0	754.5
36.01	912.0	754.3
36.02	931.0	754.0
36.03	972.0	753.8
36.04	984.0	753.6
36.05	968.0	753.4
36.06	929.0	753.2
36.07	919.0	752.9
36.08	914.0	752.7
36.09	904.0	752.5
36.1	921.0	752.3
36.11	928.0	752.1
36.12	911.0	751.9
36.13	898.0	751.7
36.14	896.0	751.4
36.15	872.0	751.2
36.16	864.0	751.0
36.17	887.0	750.8
36.18	867.0	750.6
36.19	831.0	750.4
36.2	844.0	750.2
36.21	858.0	749.9
36.22	855.0	749.7
36.23	849.0	749.5
36.24	836.0	749.3
36.25	836.0	749.1
36.26	845.0	748.9
36.27	840.0	748.7
36.28	847.0	748.5
36.29	865.0	748.3
36.3	854.0	748.0
36.31	837.0	747.8
36.32	836.0	747.6
36.33	842.0	747.4
36.34	839.0	747.2
36.35	829.0	747.0
36.36	832.0	746.8
36.37	844.0	746.6
36.38	847.0	746.4
36.39	833.0	746.2
36.4	812.0	746.0
36.41	814.0	745.8
36.42	811.0	745.5
36.43	816.0	745.3
36.44	840.0	745.1
36.45	844.0	744.9
36.46	855.0	744.7
36.47	858.0	744.5
36.48	849.0	744.3
36.49	830.0	744.1
36.5	808.0	743.9
36.51	817.0	743.7
36.52	836.0	743.5
36.53	843.0	743.3
36.54	827.0	743.1
36.55	829.0	742.9
36.56	851.0	742.7
36.57	839.0	742.5
36.58	818.0	742.3
36.59	828.0	742.1
36.6	820.0	741.9
36.61	798.0	741.7
36.62	822.0	741.5
36.63	826.0	741.3
36.64	818.0	741.1
36.65	813.0	740.9
36.66	820.0	740.7
36.67	856.0	740.5
36.68	871.0	740.3
36.69	856.0	740.1
36.7	846.0	739.9
36.71	842.0	739.7
36.72	825.0	739.5
36.73	826.0	739.3
36.74	864.0	739.1
36.75	893.0	738.9
36.76	864.0	738.7
36.77	842.0	738.5
36.78	861.0	738.3
36.79	847.0	738.1
36.8	835.0	737.9
36.81	844.0	737.7
36.82	832.0	737.5
36.83	836.0	737.3
36.84	845.0	737.2
36.85	855.0	737.0
36.86	853.0	736.8
36.87	830.0	736.6
36.88	843.0	736.4
36.89	876.0	736.2
36.9	875.0	736.0
36.91	875.0	735.8
36.92	883.0	735.6
36.93	853.0	735.4
36.94	846.0	735.2
36.95	858.0	735.0
36.96	870.0	734.9
36.97	877.0	734.7
36.98	865.0	734.5
36.99	887.0	734.3
37.0	902.0	734.1
37.01	886.0	733.9
37.02	877.0	733.7
37.03	875.0	733.5
37.04	865.0	733.3
37.05	867.0	733.2
37.06	860.0	733.0
37.07	847.0	732.8
37.08	863.0	732.6
37.09	893.0	732.4
37.1	897.0	732.2
37.11	871.0	732.0
37.12	838.0	731.8
37.13	839.0	731.7
37.14	845.0	731.5
37.15	857.0	731.3
37.16	871.0	731.1
37.17	865.0	730.9
37.18	870.0	730.7
37.19	899.0	730.5
37.2	895.0	730.4
37.21	880.0	730.2
37.22	871.0	730.0
37.23	863.0	729.8
37.24	883.0	729.6
37.25	919.0	729.5
37.26	928.0	729.3
37.27	882.0	729.1
37.28	857.0	728.9
37.29	898.0	728.7
37.3	911.0	728.5
37.31	895.0	728.4
37.32	888.0	728.2
37.33	894.0	728.0
37.34	896.0	727.8
37.35	894.0	727.6
37.36	909.0	727.5
37.37	928.0	727.3
37.38	942.0	727.1
37.39	921.0	726.9
37.4	900.0	726.8
37.41	913.0	726.6
37.42	909.0	726.4
37.43	933.0	726.2
37.44	956.0	726.0
37.45	956.0	725.9
37.46	968.0	725.7
37.47	941.0	725.5
37.48	902.0	725.3
37.49	901.0	725.2
37.5	924.0	725.0
37.51	963.0	724.8
37.52	948.0	724.6
37.53	942.0	724.5
37.54	947.0	724.3
37.55	965.0	724.1
37.56	956.0	723.9
37.57	947.0	723.8
37.58	953.0	723.6
37.59	951.0	723.4
37.6	941.0	723.2
37.61	964.0	723.1
37.62	999.0	722.9
37.63	974.0	722.7
37.64	944.0	722.6
37.65	986.0	722.4
37.66	998.0	722.2
37.67	994.0	722.0
37.68	999.0	721.9
37.69	1010.0	721.7
37.7	1018.0	721.5
37.71	1006.0	721.4
37.72	1023.0	721.2
37.73	1036.0	721.0
37.74	1057.0	720.9
37.75	1082.0	720.7
37.76	1055.0	720.5
37.77	1055.0	720.3
37.78	1057.0	720.2
37.79	1055.0	720.0
37.8	1062.0	719.8
37.81	1068.0	719.7
37.82	1100.0	719.5
37.83	1104.0	719.3
37.84	1106.0	719.2
37.85	1088.0	719.0
37.86	1051.0	718.8
37.87	1070.0	718.7
37.88	1074.0	718.5
37.89	1097.0	718.3
37.9	1121.0	718.2
37.91	1098.0	718.0
37.92	1096.0	717.9
37.93	1107.0	717.7
37.94	1076.0	717.5
37.95	1076.0	717.4
37.96	1085.0	717.2
37.97	1101.0	717.0
37.98	1101.0	716.9
37.99	1102.0	716.7
38.0	1123.0	716.5
38.01	1146.0	716.4
38.02	1182.0	716.2
38.03	1187.0	716.1
38.04	1165.0	715.9
38.05	1143.0	715.7
38.06	1176.0	715.6
38.07	1169.0	715.4
38.08	1164.0	715.3
38.09	1195.0	715.1
38.1	1206.0	714.9
38.11	1233.0	714.8
38.12	1292.0	714.6
38.13	1336.0	714.5
38.14	1417.0	714.3
38.15	1469.0	714.1
38.16	1474.0	714.0
38.17	1506.0	713.8
38.18	1566.0	713.7
38.19	1627.0	713.5
38.2	1638.0	713.3
38.21	1639.0	713.2
38.22	1651.0	713.0
38.23	1635.0	712.9
38.24	1590.0	712.7
38.25	1576.0	712.6
38.26	1562.0	712.4
38.27	1529.0	712.3
38.28	1486.0	712.1
38.29	1455.0	711.9
38.3	1404.0	711.8
38.31	1375.0	711.6
38.32	1361.0	711.5
38.33	1311.0	711.3
38.34	1249.0	711.2
38.35	1229.0	711.0
38.36	1184.0	710.9
38.37	1124.0	710.7
38.38	1074.0	710.6
38.39	1088.0	710.4
38.4	1072.0	710.2
38.41	1027.0	710.1
38.42	1001.0	709.9
38.43	999.0	709.8
38.44	989.0	709.6
38.45	963.0	709.5
38.46	947.0	709.3
38.47	944.0	709.2
38.48	939.0	709.0
38.49	946.0	708.9
38.5	969.0	708.7
38.51	967.0	708.6
38.52	960.0	708.4
38.53	913.0	708.3
38.54	862.0	708.1
38.55	884.0	708.0
38.56	878.0	707.8
38.57	900.0	707.7
38.58	882.0	707.5
38.59	879.0	707.4
38.6	874.0	707.2
38.61	886.0	707.1
38.62	892.0	706.9
38.63	875.0	706.8
38.64	855.0	706.7
38.65	852.0	706.5
38.66	858.0	706.4
38.67	865.0	706.2
38.68	873.0	706.1
38.69	862.0	705.9
38.7	849.0	705.8
38.71	838.0	705.6
38.72	826.0	705.5
38.73	831.0	705.3
38.74	808.0	705.2
38.75	815.0	705.0
38.76	801.0	704.9
38.77	798.0	704.8
38.78	809.0	704.6
38.79	822.0	704.5
38.8	818.0	704.3
38.81	788.0	704.2
38.82	797.0	704.0
38.83	789.0	703.9
38.84	810.0	703.8
38.85	832.0	703.6
38.86	823.0	703.5
38.87	824.0	703.3
38.88	822.0	703.2
38.89	813.0	703.0
38.9	822.0	702.9
38.91	830.0	702.8
38.92	797.0	702.6
38.93	801.0	702.5
38.94	794.0	702.3
38.95	817.0	702.2
38.96	793.0	702.1
38.97	768.0	701.9
38.98	766.0	701.8
38.99	768.0	701.6
39.0	775.0	701.5
39.01	759.0	701.4
39.02	771.0	701.2
39.03	783.0	701.1
39.04	775.0	701.0
39.05	783.0	700.8
39.06	780.0	700.7
39.07	760.0	700.5
39.08	762.0	700.4
39.09	753.0	700.3
39.1	739.0	700.1
39.11	738.0	700.0
39.12	746.0	699.9
39.13	735.0	699.7
39.14	705.0	699.6
39.15	730.0	699.4
39.16	741.0	699.3
39.17	740.0	699.2
39.18	752.0	699.0
39.19	741.0	698.9
39.2	740.0	698.8
39.21	765.0	698.6
39.22	752.0	698.5
39.23	734.0	698.4
39.24	736.0	698.2
39.25	740.0	698.1
39.26	717.0	698.0
39.27	731.0	697.8
39.28	767.0	697.7
39.29	748.0	697.6
39.3	725.0	697.4
39.31	717.0	697.3
39.32	716.0	697.2
39.33	717.0	697.0
39.34	724.0	696.9
39.35	724.0	696.8
39.36	733.0	696.6
39.37	755.0	696.5
39.38	757.0	696.4
39.39	769.0	696.2
39.4	784.0	696.1
39.41	755.0	696.0
39.42	742.0	695.9
39.43	728.0	695.7
39.44	730.0	695.6
39.45	755.0	695.5
39.46	765.0	695.3
39.47	722.0	695.2
39.48	696.0	695.1
39.49	692.0	695.0
39.5	721.0	694.8
39.51	723.0	694.7
39.52	733.0	694.6
39.53	708.0	694.4
39.54	725.0	694.3
39.55	738.0	694.2
39.56	722.0	694.1
39.57	745.0	693.9
39.58	716.0	693.8
39.59	708.0	693.7
39.6	752.0	693.5
39.61	735.0	693.4
39.62	729.0	693.3
39.63	713.0	693.2
39.64	705.0	693.0
39.65	728.0	692.9
39.66	748.0	692.8
39.67	747.0	692.7
39.68	746.0	692.5
39.69	715.0	692.4
39.7	703.0	692.3
39.71	713.0	692.2
39.72	712.0	692.0
39.73	713.0	691.9
39.74	707.0	691.8
39.75	720.0	691.7
39.76	705.0	691.6
39.77	675.0	691.4
39.78	706.0	691.3
39.79	734.0	691.2
39.8	770.0	691.1
39.81	756.0	690.9
39.82	760.0	690.8
39.83	749.0	690.7
39.84	758.0	690.6
39.85	745.0	690.4
39.86	688.0	690.3
39.87	699.0	690.2
39.88	703.0	690.1
39.89	718.0	690.0
39.9	723.0	689.8
39.91	711.0	689.7
39.92	711.0	689.6
39.93	714.0	689.5
39.94	694.0	689.4
39.95	715.0	689.2
39.96	702.0	689.1
39.97	697.0	689.0
39.98	696.0	688.9
39.99	723.0	688.8
40.0	721.0	688.6
40.01	706.0	688.5
40.02	713.0	688.4
40.03	712.0	688.3
40.04	722.0	688.2
40.05	697.0	688.1
40.06	710.0	687.9
40.07	713.0	687.8
40.08	711.0	687.7
40.09	714.0	687.6
40.1	696.0	687.5
40.11	670.0	687.3
40.12	686.0	687.2
40.13	732.0	687.1
40.14	739.0	687.0
40.15	710.0	686.9
40.16	686.0	686.8
40.17	696.0	686.7
40.18	710.0	686.5
40.19	691.0	686.4
40.2	670.0	686.3
40.21	704.0	686.2
40.22	714.0	686.1
40.23	693.0	686.0
40.24	715.0	685.8
40.25	705.0	685.7
40.26	693.0	685.6
40.27	693.0	685.5
40.28	744.0	685.4
40.29	713.0	685.3
40.3	699.0	685.2
40.31	709.0	685.0
40.32	702.0	684.9
40.33	707.0	684.8
40.34	694.0	684.7
40.35	718.0	684.6
40.36	736.0	684.5
40.37	706.0	684.4
40.38	708.0	684.3
40.39	725.0	684.1
40.4	709.0	684.0
40.41	699.0	683.9
40.42	718.0	683.8
40.43	691.0	683.7
40.44	707.0	683.6
40.45	712.0	683.5
40.46	723.0	683.4
40.47	709.0	683.3
40.48	708.0	683.1
40.49	706.0	683.0
40.5	746.0	682.9
40.51	727.0	682.8
40.52	715.0	682.7
40.53	709.0	682.6
40.54	696.0	682.5
40.55	706.0	682.4
40.56	712.0	682.3
40.57	704.0	682.2
40.58	710.0	682.1
40.59	726.0	681.9
40.6	736.0	681.8
40.61	739.0	681.7
40.62	744.0	681.6
40.63	785.0	681.5
40.64	745.0	681.4
40.65	727.0	681.3
40.66	717.0	681.2
40.67	723.0	681.1
40.68	740.0	681.0
40.69	762.0	680.9
40.7	757.0	680.8
40.71	728.0	680.7
40.72	707.0	680.6
40.73	706.0	680.4
40.74	718.0	680.3
40.75	733.0	680.2
40.76	742.0	680.1
40.77	734.0	680.0
40.78	701.0	679.9
40.79	706.0	679.8
40.8	716.0	679.7
40.81	726.0	679.6
40.82	736.0	679.5
40.83	710.0	679.4
40.84	719.0	679.3
40.85	684.0	679.2
40.86	705.0	679.1
40.87	704.0	679.0
40.88	703.0	678.9
40.89	680.0	678.8
40.9	672.0	678.7
40.91	717.0	678.6
40.92	734.0	678.5
40.93	727.0	678.4
40.94	729.0	678.3
40.95	724.0	678.1
40.96	738.0	678.0
40.97	752.0	677.9
40.98	727.0	677.8
40.99	700.0	677.7
41.0	707.0	677.6
41.01	737.0	677.5
41.02	741.0	677.4
41.03	701.0	677.3
41.04	707.0	677.2
41.05	713.0	677.1
41.06	699.0	677.0
41.07	690.0	676.9
41.08	703.0	676.8
41.09	711.0	676.7
41.1	694.0	676.6
41.11	728.0	676.5
41.12	714.0	676.4
41.13	708.0	676.3
41.14	722.0	676.2
41.15	697.0	676.1
41.16	703.0	676.0
41.17	711.0	675.9
41.18	717.0	675.8
41.19	708.0	675.7
41.2	723.0	675.6
41.21	727.0	675.5
41.22	705.0	675.4
41.23	719.0	675.3
41.24	722.0	675.2
41.25	713.0	675.1
41.26	709.0	675.0
41.27	695.0	674.9
41.28	715.0	674.8
41.29	694.0	674.7
41.3	707.0	674.6
41.31	693.0	674.5
41.32	709.0	674.5
41.33	688.0	674.4
41.34	712.0	674.3
41.35	740.0	674.2
41.36	719.0	674.1
41.37	709.0	674.0
41.38	682.0	673.9
41.39	649.0	673.8
41.4	664.0	673.7
41.41	696.0	673.6
41.42	689.0	673.5
41.43	707.0	673.4
41.44	723.0	673.3
41.45	728.0	673.2
41.46	709.0	673.1
41.47	681.0	673.0
41.48	664.0	672.9
41.49	717.0	672.8
41.5	700.0	672.7
41.51	687.0	672.6
41.52	704.0	672.5
41.53	719.0	672.4
41.54	712.0	672.3
41.55	731.0	672.3
41.56	746.0	672.2
41.57	706.0	672.1
41.58	703.0	672.0
41.59	687.0	671.9
41.6	665.0	671.8
41.61	680.0	671.7
41.62	695.0	671.6
41.63	705.0	671.5
41.64	723.0	671.4
41.65	707.0	671.3
41.66	712.0	671.2
41.67	727.0	671.1
41.68	710.0	671.0
41.69	692.0	670.9
41.7	707.0	670.9
41.71	688.0	670.8
41.72	695.0	670.7
41.73	666.0	670.6
41.74	688.0	670.5
41.75	670.0	670.4
41.76	673.0	670.3
41.77	679.0	670.2
41.78	684.0	670.1
41.79	704.0	670.0
41.8	703.0	669.9
41.81	708.0	669.8
41.82	704.0	669.8
41.83	686.0	669.7
41.84	689.0	669.6
41.85	703.0	669.5
41.86	741.0	669.4
41.87	689.0	669.3
41.88	669.0	669.2
41.89	708.0	669.1
41.9	714.0	669.0
41.91	712.0	668.9
41.92	711.0	668.9
41.93	714.0	668.8
41.94	691.0	668.7
41.95	707.0	668.6
41.96	692.0	668.5
41.97	707.0	668.4
41.98	724.0	668.3
41.99	694.0	668.2
42.0	679.0	668.1
42.01	680.0	668.1
42.02	723.0	668.0
42.03	729.0	667.9
42.04	700.0	667.8
42.05	698.0	667.7
42.06	696.0	667.6
42.07	676.0	667.5
42.08	687.0	667.4
42.09	685.0	667.4
42.1	670.0	667.3
42.11	703.0	667.2
42.12	728.0	667.1
42.13	709.0	667.0
42.14	718.0	666.9
42.15	722.0	666.8
42.16	746.0	666.8
42.17	666.0	666.7
42.18	678.0	666.6
42.19	681.0	666.5
42.2	717.0	666.4
42.21	709.0	666.3
42.22	696.0	666.2
42.23	692.0	666.1
42.24	696.0	666.1
42.25	702.0	666.0
42.26	713.0	665.9
42.27	717.0	665.8
42.28	727.0	665.7
42.29	723.0	665.6
42.3	729.0	665.6
42.31	695.0	665.5
42.32	710.0	665.4
42.33	679.0	665.3
42.34	696.0	665.2
42.35	720.0	665.1
42.36	682.0	665.0
42.37	692.0	665.0
42.38	712.0	664.9
42.39	720.0	664.8
42.4	748.0	664.7
42.41	725.0	664.6
42.42	734.0	664.5
42.43	711.0	664.5
42.44	684.0	664.4
42.45	692.0	664.3
42.46	705.0	664.2
42.47	701.0	664.1
42.48	698.0	664.0
42.49	686.0	664.0
42.5	707.0	663.9
42.51	719.0	663.8
42.52	679.0	663.7
42.53	694.0	663.6
42.54	719.0	663.5
42.55	727.0	663.5
42.56	707.0	663.4
42.57	719.0	663.3
42.58	742.0	663.2
42.59	708.0	663.1
42.6	720.0	663.0
42.61	714.0	663.0
42.62	700.0	662.9
42.63	726.0	662.8
42.64	733.0	662.7
42.65	689.0	662.6
42.66	696.0	662.6
42.67	733.0	662.5
42.68	716.0	662.4
42.69	709.0	662.3
42.7	724.0	662.2
42.71	702.0	662.2
42.72	717.0	662.1
42.73	695.0	662.0
42.74	694.0	661.9
42.75	715.0	661.8
42.76	725.0	661.8
42.77	764.0	661.7
42.78	732.0	661.6
42.79	764.0	661.5
42.8	737.0	661.4
42.81	732.0	661.4
42.82	733.0	661.3
42.83	744.0	661.2
42.84	742.0	661.1
42.85	751.0	661.0
42.86	746.0	661.0
42.87	739.0	660.9
42.88	731.0	660.8
42.89	766.0	660.7
42.9	768.0	660.6
42.91	760.0	660.6
42.92	784.0	660.5
42.93	799.0	660.4
42.94	787.0	660.3
42.95	742.0	660.2
42.96	783.0	660.2
42.97	789.0	660.1
42.98	746.0	660.0
42.99	754.0	659.9
43.0	744.0	659.9
43.01	782.0	659.8
43.02	786.0	659.7
43.03	772.0	659.6
43.04	748.0	659.5
43.05	774.0	659.5
43.06	782.0	659.4
43.07	778.0	659.3
43.08	787.0	659.2
43.09	796.0	659.2
43.1	790.0	659.1
43.11	777.0	659.0
43.12	810.0	658.9
43.13	829.0	658.8
43.14	811.0	658.8
43.15	809.0	658.7
43.16	807.0	658.6
43.17	811.0	658.5
43.18	825.0	658.5
43.19	803.0	658.4
43.2	821.0	658.3
43.21	838.0	658.2
43.22	840.0	658.2
43.23	864.0	658.1
43.24	857.0	658.0
43.25	863.0	657.9
43.26	887.0	657.8
43.27	876.0	657.8
43.28	865.0	657.7
43.29	888.0	657.6
43.3	906.0	657.5
43.31	936.0	657.5
43.32	980.0	657.4
43.33	960.0	657.3
43.34	915.0	657.2
43.35	962.0	657.2
43.36	989.0	657.1
43.37	981.0	657.0
43.38	990.0	656.9
43.39	1014.0	656.9
43.4	1050.0	656.8
43.41	1080.0	656.7
43.42	1081.0	656.6
43.43	1082.0	656.6
43.44	1122.0	656.5
43.45	1180.0	656.4
43.46	1253.0	656.3
43.47	1238.0	656.3
43.48	1308.0	656.2
43.49	1336.0	656.1
43.5	1345.0	656.0
43.51	1368.0	656.0
43.52	1411.0	655.9
43.53	1474.0	655.8
43.54	1542.0	655.7
43.55	1600.0	655.7
43.56	1635.0	655.6
43.57	1633.0	655.5
43.58	1633.0	655.4
43.59	1704.0	655.4
43.6	1739.0	655.3
43.61	1790.0	655.2
43.62	1782.0	655.2
43.63	1849.0	655.1
43.64	1899.0	655.0
43.65	1853.0	654.9
43.66	1794.0	654.9
43.67	1833.0	654.8
43.68	1872.0	654.7
43.69	1883.0	654.6
43.7	1829.0	654.6
43.71	1811.0	654.5
43.72	1815.0	654.4
43.73	1745.0	654.3
43.74	1688.0	654.3
43.75	1691.0	654.2
43.76	1689.0	654.1
43.77	1662.0	654.1
43.78	1604.0	654.0
43.79	1587.0	653.9
43.8	1562.0	653.8
43.81	1503.0	653.8
43.82	1429.0	653.7
43.83	1404.0	653.6
43.84	1299.0	653.5
43.85	1280.0	653.5
43.86	1252.0	653.4
43.87	1197.0	653.3
43.88	1204.0	653.3
43.89	1182.0	653.2
43.9	1134.0	653.1
43.91	1118.0	653.0
43.92	1096.0	653.0
43.93	1073.0	652.9
43.94	1052.0	652.8
43.95	1036.0	652.8
43.96	997.0	652.7
43.97	965.0	652.6
43.98	975.0	652.5
43.99	957.0	652.5
44.0	919.0	652.4
44.01	887.0	652.3
44.02	873.0	652.3
44.03	878.0	652.2
44.04	915.0	652.1
44.05	901.0	652.0
44.06	850.0	652.0
44.07	851.0	651.9
44.08	840.0	651.8
44.09	841.0	651.8
44.1	833.0	651.7
44.11	827.0	651.6
44.12	852.0	651.5
44.13	849.0	651.5
44.14	807.0	651.4
44.15	786.0	651.3
44.16	808.0	651.3
44.17	836.0	651.2
44.18	822.0	651.1
44.19	777.0	651.1
44.2	777.0	651.0
44.21	742.0	650.9
44.22	757.0	650.8
44.23	794.0	650.8
44.24	785.0	650.7
44.25	764.0	650.6
44.26	740.0	650.6
44.27	734.0	650.5
44.28	718.0	650.4
44.29	756.0	650.4
44.3	774.0	650.3
44.31	760.0	650.2
44.32	688.0	650.1
44.33	686.0	650.1
44.34	703.0	650.0
44.35	725.0	649.9
44.36	753.0	649.9
44.37	757.0	649.8
44.38	722.0	649.7
44.39	720.0	649.7
44.4	742.0	649.6
44.41	727.0	649.5
44.42	709.0	649.4
44.43	717.0	649.4
44.44	730.0	649.3
44.45	753.0	649.2
44.46	749.0	649.2
44.47	724.0	649.1
44.48	712.0	649.0
44.49	723.0	649.0
44.5	727.0	648.9
44.51	712.0	648.8
44.52	716.0	648.7
44.53	734.0	648.7
44.54	750.0	648.6
44.55	748.0	648.5
44.56	737.0	648.5
44.57	732.0	648.4
44.58	723.0	648.3
44.59	740.0	648.3
44.6	725.0	648.2
44.61	715.0	648.1
44.62	718.0	648.1
44.63	724.0	648.0
44.64	719.0	647.9
44.65	736.0	647.9
44.66	726.0	647.8
44.67	718.0	647.7
44.68	719.0	647.6
44.69	692.0	647.6
44.7	688.0	647.5
44.71	720.0	647.4
44.72	749.0	647.4
44.73	715.0	647.3
44.74	711.0	647.2
44.75	707.0	647.2
44.76	720.0	647.1
44.77	752.0	647.0
44.78	738.0	647.0
44.79	699.0	646.9
44.8	719.0	646.8
44.81	739.0	646.8
44.82	732.0	646.7
44.83	749.0	646.6
44.84	737.0	646.6
44.85	749.0	646.5
44.86	754.0	646.4
44.87	721.0	646.3
44.88	730.0	646.3
44.89	766.0	646.2
44.9	753.0	646.1
44.91	762.0	646.1
44.92	801.0	646.0
44.93	805.0	645.9
44.94	801.0	645.9
44.95	786.0	645.8
44.96	782.0	645.7
44.97	798.0	645.7
44.98	836.0	645.6
44.99	851.0	645.5
45.0	853.0	645.5
45.01	881.0	645.4
45.02	873.0	645.3
45.03	915.0	645.3
45.04	932.0	645.2
45.05	941.0	645.1
45.06	981.0	645.1
45.07	980.0	645.0
45.08	988.0	644.9
45.09	996.0	644.8
45.1	978.0	644.8
45.11	977.0	644.7
45.12	1001.0	644.6
45.13	1055.0	644.6
45.14	1040.0	644.5
45.15	1044.0	644.4
45.16	1075.0	644.4
45.17	1039.0	644.3
45.18	1023.0	644.2
45.19	1040.0	644.2
45.2	1027.0	644.1
45.21	979.0	644.0
45.22	952.0	644.0
45.23	979.0	643.9
45.24	975.0	643.8
45.25	934.0	643.8
45.26	931.0	643.7
45.27	926.0	643.6
45.28	897.0	643.6
45.29	894.0	643.5
45.3	885.0	643.4
45.31	887.0	643.4
45.32	857.0	643.3
45.33	825.0	643.2
45.34	807.0	643.2
45.35	789.0	643.1
45.36	769.0	643.0
45.37	773.0	643.0
45.38	784.0	642.9
45.39	767.0	642.8
45.4	780.0	642.8
45.41	758.0	642.7
45.42	741.0	642.6
45.43	774.0	642.5
45.44	763.0	642.5
45.45	751.0	642.4
45.46	754.0	642.3
45.47	747.0	642.3
45.48	735.0	642.2
45.49	718.0	642.1
45.5	707.0	642.1
45.51	738.0	642.0
45.52	716.0	641.9
45.53	710.0	641.9
45.54	697.0	641.8
45.55	702.0	641.7
45.56	672.0	641.7
45.57	663.0	641.6
45.58	693.0	641.5
45.59	708.0	641.5
45.6	710.0	641.4
45.61	689.0	641.3
45.62	675.0	641.3
45.63	666.0	641.2
45.64	674.0	641.1
45.65	695.0	641.1
45.66	709.0	641.0
45.67	720.0	640.9
45.68	727.0	640.9
45.69	715.0	640.8
45.7	680.0	640.7
45.71	662.0	640.7
45.72	669.0	640.6
45.73	680.0	640.5
45.74	690.0	640.5
45.75	668.0	640.4
45.76	665.0	640.3
45.77	682.0	640.3
45.78	692.0	640.2
45.79	656.0	640.1
45.8	662.0	640.0
45.81	681.0	640.0
45.82	700.0	639.9
45.83	707.0	639.8
45.84	689.0	639.8
45.85	678.0	639.7
45.86	682.0	639.6
45.87	697.0	639.6
45.88	679.0	639.5
45.89	659.0	639.4
45.9	689.0	639.4
45.91	701.0	639.3
45.92	672.0	639.2
45.93	659.0	639.2
45.94	691.0	639.1
45.95	701.0	639.0
45.96	712.0	639.0
45.97	704.0	638.9
45.98	684.0	638.8
45.99	678.0	638.8
46.0	675.0	638.7
46.01	683.0	638.6
46.02	672.0	638.6
46.03	669.0	638.5
46.04	679.0	638.4
46.05	673.0	638.4
46.06	663.0	638.3
46.07	671.0	638.2
46.08	683.0	638.1
46.09	688.0	638.1
46.1	678.0	638.0
46.11	677.0	637.9
46.12	690.0	637.9
46.13	674.0	637.8
46.14	673.0	637.7
46.15	678.0	637.7
46.16	678.0	637.6
46.17	667.0	637.5
46.18	645.0	637.5
46.19	678.0	637.4
46.2	687.0	637.3
46.21	683.0	637.3
46.22	694.0	637.2
46.23	683.0	637.1
46.24	647.0	637.1
46.25	655.0	637.0
46.26	672.0	636.9
46.27	655.0	636.8
46.28	638.0	636.8
46.29	648.0	636.7
46.3	645.0	636.6
46.31	657.0	636.6
46.32	664.0	636.5
46.33	647.0	636.4
46.34	650.0	636.4
46.35	662.0	636.3
46.36	663.0	636.2
46.37	665.0	636.2
46.38	636.0	636.1
46.39	644.0	636.0
46.4	650.0	636.0
46.41	642.0	635.9
46.42	639.0	635.8
46.43	631.0	635.7
46.44	654.0	635.7
46.45	679.0	635.6
46.46	671.0	635.5
46.47	666.0	635.5
46.48	670.0	635.4
46.49	675.0	635.3
46.5	669.0	635.3
46.51	672.0	635.2
46.52	660.0	635.1
46.53	665.0	635.1
46.54	669.0	635.0
46.55	665.0	634.9
46.56	652.0	634.8
46.57	654.0	634.8
46.58	688.0	634.7
46.59	691.0	634.6
46.6	682.0	634.6
46.61	680.0	634.5
46.62	656.0	634.4
46.63	663.0	634.4
46.64	677.0	634.3
46.65	659.0	634.2
46.66	665.0	634.2
46.67	702.0	634.1
46.68	683.0	634.0
46.69	676.0	633.9
46.7	702.0	633.9
46.71	699.0	633.8
46.72	682.0	633.7
46.73	686.0	633.7
46.74	711.0	633.6
46.75	708.0	633.5
46.76	707.0	633.5
46.77	699.0	633.4
46.78	676.0	633.3
46.79	675.0	633.2
46.8	669.0	633.2
46.81	666.0	633.1
46.82	691.0	633.0
46.83	693.0	633.0
46.84	668.0	632.9
46.85	650.0	632.8
46.86	656.0	632.8
46.87	682.0	632.7
46.88	683.0	632.6
46.89	686.0	632.6
46.9	691.0	632.5
46.91	685.0	632.4
46.92	675.0	632.3
46.93	669.0	632.3
46.94	685.0	632.2
46.95	676.0	632.1
46.96	669.0	632.1
46.97	682.0	632.0
46.98	694.0	631.9
46.99	708.0	631.9
47.0	712.0	631.8
47.01	724.0	631.7
47.02	689.0	631.6
47.03	676.0	631.6
47.04	673.0	631.5
47.05	693.0	631.4
47.06	714.0	631.4
47.07	721.0	631.3
47.08	723.0	631.2
47.09	715.0	631.2
47.1	714.0	631.1
47.11	723.0	631.0
47.12	737.0	631.0
47.13	726.0	630.9
47.14	714.0	630.8
47.15	728.0	630.7
47.16	728.0	630.7
47.17	728.0	630.6
47.18	730.0	630.5
47.19	769.0	630.5
47.2	780.0	630.4
47.21	764.0	630.3
47.22	765.0	630.3
47.23	779.0	630.2
47.24	775.0	630.1
47.25	756.0	630.1
47.26	759.0	630.0
47.27	753.0	629.9
47.28	752.0	629.8
47.29	760.0	629.8
47.3	780.0	629.7
47.31	761.0	629.6
47.32	761.0	629.6
47.33	782.0	629.5
47.34	794.0	629.4
47.35	798.0	629.4
47.36	774.0	629.3
47.37	778.0	629.2
47.38	787.0	629.2
47.39	788.0	629.1
47.4	770.0	629.0
47.41	769.0	629.0
47.42	762.0	628.9
47.43	769.0	628.8
47.44	794.0	628.8
47.45	789.0	628.7
47.46	772.0	628.6
47.47	770.0	628.5
47.48	788.0	628.5
47.49	801.0	628.4
47.5	806.0	628.3
47.51	812.0	628.3
47.52	815.0	628.2
47.53	822.0	628.1
47.54	835.0	628.1
47.55	822.0	628.0
47.56	814.0	627.9
47.57	815.0	627.9
47.58	827.0	627.8
47.59	835.0	627.7
47.6	874.0	627.7
47.61	873.0	627.6
47.62	844.0	627.5
47.63	863.0	627.5
47.64	882.0	627.4
47.65	885.0	627.3
47.66	900.0	627.3
47.67	912.0	627.2
47.68	918.0	627.1
47.69	911.0	627.1
47.7	928.0	627.0
47.71	955.0	626.9
47.72	966.0	626.9
47.73	952.0	626.8
47.74	973.0	626.7
47.75	986.0	626.7
47.76	966.0	626.6
47.77	953.0	626.5
47.78	955.0	626.5
47.79	978.0	626.4
47.8	993.0	626.3
47.81	998.0	626.3
47.82	1006.0	626.2
47.83	1014.0	626.1
47.84	1038.0	626.1
47.85	1049.0	626.0
47.86	1064.0	625.9
47.87	1079.0	625.9
47.88	1082.0	625.8
47.89	1095.0	625.8
47.9	1095.0	625.7
47.91	1110.0	625.6
47.92	1123.0	625.6
47.93	1121.0	625.5
47.94	1092.0	625.4
47.95	1100.0	625.4
47.96	1139.0	625.3
47.97	1158.0	625.2
47.98	1144.0	625.2
47.99	1138.0	625.1
48.0	1142.0	625.0
48.01	1153.0	625.0
48.02	1156.0	624.9
48.03	1139.0	624.9
48.04	1160.0	624.8
48.05	1175.0	624.7
48.06	1187.0	624.7
48.07	1187.0	624.6
48.08	1168.0	624.5
48.09	1165.0	624.5
48.1	1171.0	624.4
48.11	1147.0	624.3
48.12	1152.0	624.3
48.13	1170.0	624.2
48.14	1151.0	624.2
48.15	1141.0	624.1
48.16	1151.0	624.0
48.17	1134.0	624.0
48.18	1101.0	623.9
48.19	1105.0	623.8
48.2	1138.0	623.8
48.21	1124.0	623.7
48.22	1106.0	623.7
48.23	1085.0	623.6
48.24	1032.0	623.5
48.25	1016.0	623.5
48.26	1015.0	623.4
48.27	1010.0	623.4
48.28	994.0	623.3
48.29	972.0	623.2
48.3	967.0	623.2
48.31	958.0	623.1
48.32	937.0	623.0
48.33	936.0	623.0
48.34	939.0	622.9
48.35	943.0	622.9
48.36	925.0	622.8
48.37	894.0	622.7
48.38	905.0	622.7
48.39	919.0	622.6
48.4	907.0	622.6
48.41	889.0	622.5
48.42	851.0	622.4
48.43	844.0	622.4
48.44	869.0	622.3
48.45	855.0	622.3
48.46	842.0	622.2
48.47	824.0	622.2
48.48	814.0	622.1
48.49	815.0	622.0
48.5	798.0	622.0
48.51	783.0	621.9
48.52	774.0	621.9
48.53	764.0	621.8
48.54	773.0	621.7
48.55	768.0	621.7
48.56	771.0	621.6
48.57	780.0	621.6
48.58	766.0	621.5
48.59	767.0	621.5
48.6	781.0	621.4
48.61	793.0	621.3
48.62	777.0	621.3
48.63	753.0	621.2
48.64	749.0	621.2
48.65	736.0	621.1
48.66	745.0	621.1
48.67	743.0	621.0
48.68	744.0	621.0
48.69	755.0	620.9
48.7	742.0	620.8
48.71	743.0	620.8
48.72	760.0	620.7
48.73	757.0	620.7
48.74	738.0	620.6
48.75	742.0	620.6
48.76	761.0	620.5
48.77	759.0	620.5
48.78	755.0	620.4
48.79	758.0	620.4
48.8	750.0	620.3
48.81	746.0	620.2
48.82	758.0	620.2
48.83	735.0	620.1
48.84	715.0	620.1
48.85	728.0	620.0
48.86	735.0	620.0
48.87	718.0	619.9
48.88	720.0	619.9
48.89	719.0	619.8
48.9	712.0	619.8
48.91	721.0	619.7
48.92	743.0	619.7
48.93	758.0	619.6
48.94	757.0	619.6
48.95	739.0	619.5
48.96	725.0	619.5
48.97	719.0	619.4
48.98	710.0	619.4
48.99	707.0	619.3
49.0	733.0	619.3
49.01	749.0	619.2
49.02	727.0	619.2
49.03	731.0	619.1
49.04	768.0	619.1
49.05	756.0	619.0
49.06	728.0	619.0
49.07	727.0	618.9
49.08	750.0	618.9
49.09	792.0	618.8
49.1	799.0	618.8
49.11	771.0	618.7
49.12	782.0	618.7
49.13	817.0	618.6
49.14	850.0	618.6
49.15	847.0	618.5
49.16	844.0	618.5
49.17	842.0	618.4
49.18	854.0	618.4
49.19	897.0	618.3
49.2	911.0	618.3
49.21	896.0	618.2
49.22	933.0	618.2
49.23	979.0	618.1
49.24	1008.0	618.1
49.25	1023.0	618.1
49.26	1034.0	618.0
49.27	1060.0	618.0
49.28	1081.0	617.9
49.29	1109.0	617.9
49.3	1155.0	617.8
49.31	1183.0	617.8
49.32	1174.0	617.7
49.33	1158.0	617.7
49.34	1152.0	617.7
49.35	1174.0	617.6
49.36	1154.0	617.6
49.37	1121.0	617.5
49.38	1105.0	617.5
49.39	1070.0	617.4
49.4	1066.0	617.4
49.41	1060.0	617.3
49.42	1047.0	617.3
49.43	1051.0	617.3
49.44	1058.0	617.2
49.45	1050.0	617.2
49.46	1001.0	617.1
49.47	960.0	617.1
49.48	960.0	617.1
49.49	948.0	617.0
49.5	931.0	617.0
49.51	923.0	616.9
49.52	901.0	616.9
49.53	865.0	616.9
49.54	831.0	616.8
49.55	819.0	616.8
49.56	823.0	616.7
49.57	808.0	616.7
49.58	798.0	616.7
49.59	798.0	616.6
49.6	800.0	616.6
49.61	799.0	616.5
49.62	779.0	616.5
49.63	751.0	616.5
49.64	733.0	616.4
49.65	740.0	616.4
49.66	745.0	616.4
49.67	725.0	616.3
49.68	727.0	616.3
49.69	743.0	616.2
49.7	737.0	616.2
49.71	735.0	616.2
49.72	717.0	616.1
49.73	710.0	616.1
49.74	702.0	616.1
49.75	696.0	616.0
49.76	707.0	616.0
49.77	676.0	616.0
49.78	666.0	615.9
49.79	693.0	615.9
49.8	676.0	615.9
49.81	659.0	615.8
49.82	668.0	615.8
49.83	676.0	615.8
49.84	674.0	615.7
49.85	663.0	615.7
49.86	654.0	615.7
49.87	659.0	615.6
49.88	681.0	615.6
49.89	681.0	615.6
49.9	648.0	615.5
49.91	649.0	615.5
49.92	668.0	615.5
49.93	659.0	615.4
49.94	652.0	615.4
49.95	652.0	615.4
49.96	659.0	615.4
49.97	668.0	615.3
49.98	667.0	615.3
49.99	669.0	615.3
50.0	661.0	615.2
50.01	659.0	615.2
50.02	663.0	615.2
50.03	660.0	615.2
50.04	657.0	615.1
50.05	650.0	615.1
50.06	647.0	615.1
50.07	657.0	615.0
50.08	669.0	615.0
50.09	671.0	615.0
50.1	675.0	615.0
50.11	677.0	614.9
50.12	667.0	614.9
50.13	664.0	614.9
50.14	659.0	614.9
50.15	636.0	614.8
50.16	616.0	614.8
50.17	616.0	614.8
50.18	636.0	614.8
50.19	665.0	614.7
50.2	656.0	614.7
50.21	643.0	614.7
50.22	662.0	614.7
50.23	667.0	614.6
50.24	658.0	614.6
50.25	653.0	614.6
50.26	651.0	614.6
50.27	657.0	614.6
50.28	663.0	614.5
50.29	665.0	614.5
50.3	662.0	614.5
50.31	649.0	614.5
50.32	645.0	614.5
50.33	660.0	614.4
50.34	660.0	614.4
50.35	648.0	614.4
50.36	648.0	614.4
50.37	632.0	614.4
50.38	621.0	614.3
50.39	653.0	614.3
50.4	660.0	614.3
50.41	645.0	614.3
50.42	646.0	614.3
50.43	632.0	614.3
50.44	630.0	614.2
50.45	653.0	614.2
50.46	667.0	614.2
50.47	670.0	614.2
50.48	666.0	614.2
50.49	665.0	614.2
50.5	654.0	614.1
50.51	640.0	614.1
50.52	653.0	614.1
50.53	659.0	614.1
50.54	640.0	614.1
50.55	645.0	614.1
50.56	666.0	614.1
50.57	669.0	614.0
50.58	664.0	614.0
50.59	643.0	614.0
50.6	640.0	614.0
50.61	657.0	614.0
50.62	669.0	614.0
50.63	670.0	614.0
50.64	669.0	614.0
50.65	673.0	614.0
50.66	678.0	613.9
50.67	672.0	613.9
50.68	654.0	613.9
50.69	663.0	613.9
50.7	666.0	613.9
50.71	651.0	613.9
50.72	654.0	613.9
50.73	663.0	613.9
50.74	675.0	613.9
50.75	669.0	613.9
50.76	655.0	613.9
50.77	642.0	613.9
50.78	632.0	613.9
50.79	638.0	613.8
50.8	644.0	613.8
50.81	636.0	613.8
50.82	635.0	613.8
50.83	649.0	613.8
50.84	644.0	613.8
50.85	636.0	613.8
50.86	645.0	613.8
50.87	671.0	613.8
50.88	684.0	613.8
50.89	672.0	613.8
50.9	651.0	613.8
50.91	636.0	613.8
50.92	649.0	613.8
50.93	654.0	613.8
50.94	651.0	613.8
50.95	679.0	613.8
50.96	684.0	613.8
50.97	649.0	613.8
50.98	640.0	613.8
50.99	645.0	613.8
51.0	630.0	613.8
51.01	633.0	613.8
51.02	667.0	613.8
51.03	675.0	613.8
51.04	639.0	613.8
51.05	624.0	613.8
51.06	646.0	613.8
51.07	670.0	613.8
51.08	667.0	613.8
51.09	677.0	613.8
51.1	678.0	613.8
51.11	662.0	613.8
51.12	677.0	613.8
51.13	676.0	613.8
51.14	642.0	613.8
51.15	626.0	613.9
51.16	634.0	613.9
51.17	643.0	613.9
51.18	660.0	613.9
51.19	671.0	613.9
51.2	664.0	613.9
51.21	652.0	613.9
51.22	643.0	613.9
51.23	651.0	613.9
51.24	646.0	613.9
51.25	633.0	613.9
51.26	643.0	613.9
51.27	657.0	614.0
51.28	669.0	614.0
51.29	655.0	614.0
51.3	635.0	614.0
51.31	636.0	614.0
51.32	654.0	614.0
51.33	664.0	614.0
51.34	657.0	614.0
51.35	655.0	614.1
51.36	648.0	614.1
51.37	645.0	614.1
51.38	653.0	614.1
51.39	660.0	614.1
51.4	662.0	614.1
51.41	650.0	614.1
51.42	622.0	614.2
51.43	598.0	614.2
51.44	603.0	614.2
51.45	629.0	614.2
51.46	661.0	614.2
51.47	686.0	614.2
51.48	664.0	614.3
51.49	632.0	614.3
51.5	652.0	614.3
51.51	662.0	614.3
51.52	659.0	614.3
51.53	671.0	614.4
51.54	669.0	614.4
51.55	664.0	614.4
51.56	633.0	614.4
51.57	627.0	614.4
51.58	676.0	614.5
51.59	687.0	614.5
51.6	655.0	614.5
51.61	638.0	614.5
51.62	641.0	614.6
51.63	658.0	614.6
51.64	668.0	614.6
51.65	668.0	614.6
51.66	652.0	614.6
51.67	645.0	614.7
51.68	679.0	614.7
51.69	684.0	614.7
51.7	658.0	614.8
51.71	640.0	614.8
51.72	641.0	614.8
51.73	650.0	614.8
51.74	635.0	614.9
51.75	641.0	614.9
51.76	661.0	614.9
51.77	638.0	614.9
51.78	618.0	615.0
51.79	646.0	615.0
51.8	644.0	615.0
51.81	633.0	615.1
51.82	639.0	615.1
51.83	642.0	615.1
51.84	646.0	615.2
51.85	655.0	615.2
51.86	657.0	615.2
51.87	652.0	615.2
51.88	649.0	615.3
51.89	655.0	615.3
51.9	663.0	615.3
51.91	632.0	615.4
51.92	631.0	615.4
51.93	652.0	615.4
51.94	653.0	615.5
51.95	668.0	615.5
51.96	669.0	615.6
51.97	642.0	615.6
51.98	636.0	615.6
51.99	647.0	615.7
52.0	654.0	615.7
52.01	655.0	615.7
52.02	664.0	615.8
52.03	668.0	615.8
52.04	671.0	615.8
52.05	661.0	615.9
52.06	660.0	615.9
52.07	670.0	616.0
52.08	650.0	616.0
52.09	643.0	616.0
52.1	652.0	616.1
52.11	675.0	616.1
52.12	684.0	616.2
52.13	663.0	616.2
52.14	642.0	616.2
52.15	627.0	616.3
52.16	625.0	616.3
52.17	656.0	616.4
52.18	659.0	616.4
52.19	649.0	616.4
52.2	673.0	616.5
52.21	667.0	616.5
52.22	673.0	616.6
52.23	679.0	616.6
52.24	658.0	616.7
52.25	661.0	616.7
52.26	669.0	616.7
52.27	674.0	616.8
52.28	660.0	616.8
52.29	650.0	616.9
52.3	646.0	616.9
52.31	638.0	617.0
52.32	661.0	617.0
52.33	682.0	617.1
52.34	658.0	617.1
52.35	650.0	617.2
52.36	647.0	617.2
52.37	651.0	617.2
52.38	663.0	617.3
52.39	684.0	617.3
52.4	688.0	617.4
52.41	682.0	617.4
52.42	674.0	617.5
52.43	672.0	617.5
52.44	676.0	617.6
52.45	660.0	617.6
52.46	645.0	617.7
52.47	647.0	617.7
52.48	657.0	617.8
52.49	683.0	617.8
52.5	678.0	617.9
52.51	661.0	617.9
52.52	674.0	618.0
52.53	677.0	618.0
52.54	669.0	618.1
52.55	659.0	618.2
52.56	659.0	618.2
52.57	667.0	618.3
52.58	665.0	618.3
52.59	662.0	618.4
52.6	649.0	618.4
52.61	645.0	618.5
52.62	660.0	618.5
52.63	667.0	618.6
52.64	657.0	618.6
52.65	652.0	618.7
52.66	660.0	618.7
52.67	678.0	618.8
52.68	669.0	618.9
52.69	650.0	618.9
52.7	674.0	619.0
52.71	685.0	619.0
52.72	679.0	619.1
52.73	683.0	619.1
52.74	686.0	619.2
52.75	690.0	619.3
52.76	684.0	619.3
52.77	675.0	619.4
52.78	666.0	619.4
52.79	667.0	619.5
52.8	673.0	619.5
52.81	655.0	619.6
52.82	651.0	619.7
52.83	669.0	619.7
52.84	674.0	619.8
52.85	692.0	619.8
52.86	703.0	619.9
52.87	701.0	620.0
52.88	690.0	620.0
52.89	689.0	620.1
52.9	696.0	620.2
52.91	700.0	620.2
52.92	701.0	620.3
52.93	685.0	620.3
52.94	691.0	620.4
52.95	684.0	620.5
52.96	670.0	620.5
52.97	663.0	620.6
52.98	688.0	620.7
52.99	709.0	620.7
53.0	721.0	620.8
53.01	733.0	620.8
53.02	718.0	620.9
53.03	690.0	621.0
53.04	708.0	621.0
53.05	733.0	621.1
53.06	739.0	621.2
53.07	732.0	621.2
53.08	717.0	621.3
53.09	726.0	621.4
53.1	746.0	621.4
53.11	733.0	621.5
53.12	721.0	621.6
53.13	727.0	621.6
53.14	755.0	621.7
53.15	794.0	621.8
53.16	807.0	621.8
53.17	807.0	621.9
53.18	831.0	622.0
53.19	835.0	622.0
53.2	803.0	622.1
53.21	801.0	622.2
53.22	848.0	622.2
53.23	846.0	622.3
53.24	826.0	622.4
53.25	846.0	622.4
53.26	852.0	622.5
53.27	840.0	622.6
53.28	817.0	622.7
53.29	813.0	622.7
53.3	831.0	622.8
53.31	827.0	622.9
53.32	823.0	622.9
53.33	846.0	623.0
53.34	839.0	623.1
53.35	824.0	623.1
53.36	824.0	623.2
53.37	815.0	623.3
53.38	817.0	623.4
53.39	824.0	623.4
53.4	844.0	623.5
53.41	862.0	623.6
53.42	846.0	623.6
53.43	849.0	623.7
53.44	839.0	623.8
53.45	837.0	623.9
53.46	835.0	623.9
53.47	829.0	624.0
53.48	820.0	624.1
53.49	816.0	624.2
53.5	822.0	624.2
53.51	812.0	624.3
53.52	816.0	624.4
53.53	845.0	624.5
53.54	863.0	624.5
53.55	875.0	624.6
53.56	858.0	624.7
53.57	830.0	624.8
53.58	825.0	624.8
53.59	839.0	624.9
53.6	843.0	625.0
53.61	859.0	625.1
53.62	843.0	625.1
53.63	826.0	625.2
53.64	833.0	625.3
53.65	854.0	625.4
53.66	880.0	625.4
53.67	875.0	625.5
53.68	859.0	625.6
53.69	878.0	625.7
53.7	888.0	625.8
53.71	874.0	625.8
53.72	862.0	625.9
53.73	865.0	626.0
53.74	902.0	626.1
53.75	923.0	626.1
53.76	914.0	626.2
53.77	899.0	626.3
53.78	921.0	626.4
53.79	930.0	626.5
53.8	940.0	626.5
53.81	954.0	626.6
53.82	946.0	626.7
53.83	947.0	626.8
53.84	951.0	626.9
53.85	973.0	626.9
53.86	988.0	627.0
53.87	964.0	627.1
53.88	975.0	627.2
53.89	1013.0	627.3
53.9	1025.0	627.3
53.91	1032.0	627.4
53.92	1017.0	627.5
53.93	995.0	627.6
53.94	999.0	627.7
53.95	1002.0	627.7
53.96	999.0	627.8
53.97	1013.0	627.9
53.98	1037.0	628.0
53.99	1019.0	628.1
54.0	978.0	628.2
54.01	971.0	628.2
54.02	998.0	628.3
54.03	1000.0	628.4
54.04	973.0	628.5
54.05	983.0	628.6
54.06	997.0	628.7
54.07	1011.0	628.7
54.08	1010.0	628.8
54.09	1005.0	628.9
54.1	992.0	629.0
54.11	988.0	629.1
54.12	1005.0	629.2
54.13	1012.0	629.2
54.14	1001.0	629.3
54.15	976.0	629.4
54.16	971.0	629.5
54.17	998.0	629.6
54.18	981.0	629.7
54.19	956.0	629.7
54.2	946.0	629.8
54.21	955.0	629.9
54.22	965.0	630.0
54.23	952.0	630.1
54.24	933.0	630.2
54.25	943.0	630.3
54.26	985.0	630.3
54.27	956.0	630.4
54.28	929.0	630.5
54.29	951.0	630.6
54.3	964.0	630.7
54.31	953.0	630.8
54.32	953.0	630.9
54.33	924.0	630.9
54.34	898.0	631.0
54.35	892.0	631.1
54.36	914.0	631.2
54.37	962.0	631.3
54.38	980.0	631.4
54.39	953.0	631.5
54.4	937.0	631.5
54.41	928.0	631.6
54.42	943.0	631.7
54.43	974.0	631.8
54.44	962.0	631.9
54.45	943.0	632.0
54.46	922.0	632.1
54.47	918.0	632.2
54.48	926.0	632.2
54.49	910.0	632.3
54.5	916.0	632.4
54.51	930.0	632.5
54.52	918.0	632.6
54.53	916.0	632.7
54.54	950.0	632.8
54.55	938.0	632.9
54.56	911.0	632.9
54.57	919.0	633.0
54.58	933.0	633.1
54.59	950.0	633.2
54.6	931.0	633.3
54.61	938.0	633.4
54.62	938.0	633.5
54.63	929.0	633.6
54.64	941.0	633.7
54.65	965.0	633.7
54.66	999.0	633.8
54.67	995.0	633.9
54.68	984.0	634.0
54.69	997.0	634.1
54.7	1014.0	634.2
54.71	1009.0	634.3
54.72	1000.0	634.4
54.73	1022.0	634.5
54.74	1048.0	634.6
54.75	1063.0	634.6
54.76	1091.0	634.7
54.77	1100.0	634.8
54.78	1109.0	634.9
54.79	1118.0	635.0
54.8	1113.0	635.1
54.81	1114.0	635.2
54.82	1119.0	635.3
54.83	1155.0	635.4
54.84	1166.0	635.5
54.85	1198.0	635.5
54.86	1199.0	635.6
54.87	1186.0	635.7
54.88	1219.0	635.8
54.89	1242.0	635.9
54.9	1257.0	636.0
54.91	1291.0	636.1
54.92	1295.0	636.2
54.93	1303.0	636.3
54.94	1344.0	636.4
54.95	1384.0	636.5
54.96	1427.0	636.5
54.97	1454.0	636.6
54.98	1497.0	636.7
54.99	1547.0	636.8
55.0	1580.0	636.9
55.01	1627.0	637.0
55.02	1716.0	637.1
55.03	1761.0	637.2
55.04	1796.0	637.3
55.05	1889.0	637.4
55.06	1948.0	637.5
55.07	2037.0	637.5
55.08	2088.0	637.6
55.09	2127.0	637.7
55.1	2225.0	637.8
55.11	2283.0	637.9
55.12	2296.0	638.0
55.13	2349.0	638.1
55.14	2393.0	638.2
55.15	2416.0	638.3
55.16	2409.0	638.4
55.17	2372.0	638.5
55.18	2338.0	638.6
55.19	2297.0	638.6
55.2	2274.0	638.7
55.21	2256.0	638.8
55.22	2245.0	638.9
55.23	2224.0	639.0
55.24	2158.0	639.1
55.25	2123.0	639.2
55.26	2099.0	639.3
55.27	2066.0	639.4
55.28	2034.0	639.5
55.29	1989.0	639.6
55.3	1937.0	639.7
55.31	1868.0	639.8
55.32	1844.0	639.8
55.33	1813.0	639.9
55.34	1737.0	640.0
55.35	1678.0	640.1
55.36	1641.0	640.2
55.37	1605.0	640.3
55.38	1549.0	640.4
55.39	1507.0	640.5
55.4	1467.0	640.6
55.41	1380.0	640.7
55.42	1306.0	640.8
55.43	1251.0	640.9
55.44	1227.0	641.0
55.45	1213.0	641.0
55.46	1229.0	641.1
55.47	1227.0	641.2
55.48	1139.0	641.3
55.49	1083.0	641.4
55.5	1066.0	641.5
55.51	1027.0	641.6
55.52	1037.0	641.7
55.53	1053.0	641.8
55.54	1028.0	641.9
55.55	1017.0	642.0
55.56	1017.0	642.1
55.57	1006.0	642.2
55.58	990.0	642.3
55.59	944.0	642.3
55.6	927.0	642.4
55.61	940.0	642.5
55.62	952.0	642.6
55.63	957.0	642.7
55.64	924.0	642.8
55.65	898.0	642.9
55.66	898.0	643.0
55.67	913.0	643.1
55.68	892.0	643.2
55.69	861.0	643.3
55.7	843.0	643.4
55.71	844.0	643.5
55.72	842.0	643.5
55.73	822.0	643.6
55.74	822.0	643.7
55.75	842.0	643.8
55.76	854.0	643.9
55.77	844.0	644.0
55.78	819.0	644.1
55.79	807.0	644.2
55.8	816.0	644.3
55.81	817.0	644.4
55.82	825.0	644.5
55.83	816.0	644.6
55.84	787.0	644.6
55.85	787.0	644.7
55.86	769.0	644.8
55.87	755.0	644.9
55.88	766.0	645.0
55.89	792.0	645.1
55.9	783.0	645.2
55.91	755.0	645.3
55.92	742.0	645.4
55.93	719.0	645.5
55.94	737.0	645.6
55.95	757.0	645.7
55.96	774.0	645.7
55.97	772.0	645.8
55.98	745.0	645.9
55.99	744.0	646.0
56.0	762.0	646.1
56.01	767.0	646.2
56.02	750.0	646.3
56.03	749.0	646.4
56.04	736.0	646.5
56.05	723.0	646.6
56.06	743.0	646.7
56.07	764.0	646.8
56.08	771.0	646.8
56.09	764.0	646.9
56.1	759.0	647.0
56.11	762.0	647.1
56.12	749.0	647.2
56.13	751.0	647.3
56.14	736.0	647.4
56.15	722.0	647.5
56.16	714.0	647.6
56.17	714.0	647.7
56.18	744.0	647.7
56.19	751.0	647.8
56.2	734.0	647.9
56.21	734.0	648.0
56.22	748.0	648.1
56.23	741.0	648.2
56.24	712.0	648.3
56.25	713.0	648.4
56.26	722.0	648.5
56.27	727.0	648.6
56.28	744.0	648.6
56.29	733.0	648.7
56.3	724.0	648.8
56.31	738.0	648.9
56.32	738.0	649.0
56.33	705.0	649.1
56.34	730.0	649.2
56.35	741.0	649.3
56.36	726.0	649.4
56.37	712.0	649.4
56.38	729.0	649.5
56.39	733.0	649.6
56.4	749.0	649.7
56.41	748.0	649.8
56.42	732.0	649.9
56.43	710.0	650.0
56.44	710.0	650.1
56.45	733.0	650.2
56.46	753.0	650.2
56.47	766.0	650.3
56.48	756.0	650.4
56.49	725.0	650.5
56.5	715.0	650.6
56.51	720.0	650.7
56.52	729.0	650.8
56.53	716.0	650.9
56.54	727.0	650.9
56.55	734.0	651.0
56.56	720.0	651.1
56.57	744.0	651.2
56.58	739.0	651.3
56.59	726.0	651.4
56.6	720.0	651.5
56.61	744.0	651.6
56.62	754.0	651.6
56.63	750.0	651.7
56.64	770.0	651.8
56.65	789.0	651.9
56.66	792.0	652.0
56.67	771.0	652.1
56.68	762.0	652.2
56.69	771.0	652.2
56.7	755.0	652.3
56.71	759.0	652.4
56.72	751.0	652.5
56.73	726.0	652.6
56.74	714.0	652.7
56.75	733.0	652.8
56.76	759.0	652.8
56.77	767.0	652.9
56.78	743.0	653.0
56.79	755.0	653.1
56.8	756.0	653.2
56.81	744.0	653.3
56.82	741.0	653.4
56.83	755.0	653.4
56.84	767.0	653.5
56.85	756.0	653.6
56.86	765.0	653.7
56.87	761.0	653.8
56.88	741.0	653.9
56.89	741.0	653.9
56.9	755.0	654.0
56.91	749.0	654.1
56.92	753.0	654.2
56.93	775.0	654.3
56.94	797.0	654.4
56.95	772.0	654.4
56.96	774.0	654.5
56.97	800.0	654.6
56.98	813.0	654.7
56.99	812.0	654.8
57.0	799.0	654.9
57.01	790.0	654.9
57.02	787.0	655.0
57.03	777.0	655.1
57.04	745.0	655.2
57.05	755.0	655.3
57.06	780.0	655.3
57.07	768.0	655.4
57.08	739.0	655.5
57.09	752.0	655.6
57.1	778.0	655.7
57.11	786.0	655.7
57.12	760.0	655.8
57.13	755.0	655.9
57.14	755.0	656.0
57.15	757.0	656.1
57.16	754.0	656.1
57.17	764.0	656.2
57.18	778.0	656.3
57.19	770.0	656.4
57.2	748.0	656.5
57.21	785.0	656.5
57.22	765.0	656.6
57.23	760.0	656.7
57.24	776.0	656.8
57.25	764.0	656.9
57.26	743.0	656.9
57.27	736.0	657.0
57.28	735.0	657.1
57.29	738.0	657.2
57.3	738.0	657.2
57.31	748.0	657.3
57.32	733.0	657.4
57.33	716.0	657.5
57.34	710.0	657.6
57.35	703.0	657.6
57.36	691.0	657.7
57.37	711.0	657.8
57.38	723.0	657.9
57.39	745.0	657.9
57.4	711.0	658.0
57.41	729.0	658.1
57.42	744.0	658.2
57.43	733.0	658.2
57.44	713.0	658.3
57.45	718.0	658.4
57.46	747.0	658.5
57.47	762.0	658.5
57.48	730.0	658.6
57.49	707.0	658.7
57.5	713.0	658.8
57.51	735.0	658.8
57.52	728.0	658.9
57.53	732.0	659.0
57.54	732.0	659.1
57.55	742.0	659.1
57.56	766.0	659.2
57.57	758.0	659.3
57.58	752.0	659.3
57.59	757.0	659.4
57.6	727.0	659.5
57.61	720.0	659.6
57.62	730.0	659.6
57.63	717.0	659.7
57.64	739.0	659.8
57.65	752.0	659.8
57.66	778.0	659.9
57.67	745.0	660.0
57.68	716.0	660.1
57.69	729.0	660.1
57.7	713.0	660.2
57.71	716.0	660.3
57.72	737.0	660.3
57.73	730.0	660.4
57.74	735.0	660.5
57.75	717.0	660.5
57.76	709.0	660.6
57.77	722.0	660.7
57.78	706.0	660.8
57.79	720.0	660.8
57.8	720.0	660.9
57.81	708.0	661.0
57.82	729.0	661.0
57.83	744.0	661.1
57.84	722.0	661.2
57.85	720.0	661.2
57.86	736.0	661.3
57.87	757.0	661.4
57.88	734.0	661.4
57.89	708.0	661.5
57.9	696.0	661.6
57.91	697.0	661.6
57.92	710.0	661.7
57.93	712.0	661.8
57.94	712.0	661.8
57.95	720.0	661.9
57.96	697.0	662.0
57.97	700.0	662.0
57.98	721.0	662.1
57.99	732.0	662.1
58.0	757.0	662.2
58.01	727.0	662.3
58.02	718.0	662.3
58.03	732.0	662.4
58.04	699.0	662.5
58.05	691.0	662.5
58.06	715.0	662.6
58.07	723.0	662.6
58.08	712.0	662.7
58.09	702.0	662.8
58.1	718.0	662.8
58.11	694.0	662.9
58.12	663.0	663.0
58.13	690.0	663.0
58.14	716.0	663.1
58.15	723.0	663.1
58.16	703.0	663.2
58.17	704.0	663.3
58.18	715.0	663.3
58.19	709.0	663.4
58.2	692.0	663.4
58.21	668.0	663.5
58.22	690.0	663.5
58.23	708.0	663.6
58.24	735.0	663.7
58.25	705.0	663.7
58.26	717.0	663.8
58.27	715.0	663.8
58.28	707.0	663.9
58.29	694.0	663.9
58.3	704.0	664.0
58.31	704.0	664.1
58.32	668.0	664.1
58.33	648.0	664.2
58.34	649.0	664.2
58.35	683.0	664.3
58.36	712.0	664.3
58.37	695.0	664.4
58.38	686.0	664.4
58.39	687.0	664.5
58.4	699.0	664.6
58.41	717.0	664.6
58.42	692.0	664.7
58.43	667.0	664.7
58.44	685.0	664.8
58.45	702.0	664.8
58.46	701.0	664.9
58.47	706.0	664.9
58.48	719.0	665.0
58.49	701.0	665.0
58.5	673.0	665.1
58.51	655.0	665.1
58.52	683.0	665.2
58.53	692.0	665.2
58.54	683.0	665.3
58.55	681.0	665.3
58.56	685.0	665.4
58.57	661.0	665.4
58.58	682.0	665.5
58.59	690.0	665.5
58.6	679.0	665.6
58.61	696.0	665.6
58.62	700.0	665.7
58.63	690.0	665.7
58.64	687.0	665.8
58.65	694.0	665.8
58.66	686.0	665.9
58.67	695.0	665.9
58.68	697.0	666.0
58.69	693.0	666.0
58.7	710.0	666.0
58.71	707.0	666.1
58.72	712.0	666.1
58.73	709.0	666.2
58.74	696.0	666.2
58.75	703.0	666.3
58.76	710.0	666.3
58.77	703.0	666.4
58.78	696.0	666.4
58.79	727.0	666.5
58.8	758.0	666.5
58.81	737.0	666.5
58.82	717.0	666.6
58.83	705.0	666.6
58.84	711.0	666.7
58.85	689.0	666.7
58.86	674.0	666.8
58.87	686.0	666.8
58.88	696.0	666.8
58.89	706.0	666.9
58.9	694.0	666.9
58.91	709.0	667.0
58.92	722.0	667.0
58.93	707.0	667.0
58.94	704.0	667.1
58.95	680.0	667.1
58.96	660.0	667.2
58.97	665.0	667.2
58.98	675.0	667.2
58.99	682.0	667.3
59.0	689.0	667.3
59.01	686.0	667.4
59.02	664.0	667.4
59.03	662.0	667.4
59.04	654.0	667.5
59.05	671.0	667.5
59.06	683.0	667.5
59.07	697.0	667.6
59.08	709.0	667.6
59.09	677.0	667.7
59.1	656.0	667.7
59.11	695.0	667.7
59.12	672.0	667.8
59.13	668.0	667.8
59.14	681.0	667.8
59.15	676.0	667.9
59.16	707.0	667.9
59.17	705.0	667.9
59.18	685.0	668.0
59.19	673.0	668.0
59.2	687.0	668.0
59.21	678.0	668.1
59.22	706.0	668.1
59.23	703.0	668.1
59.24	664.0	668.2
59.25	686.0	668.2
59.26	703.0	668.2
59.27	705.0	668.3
59.28	694.0	668.3
59.29	690.0	668.3
59.3	694.0	668.4
59.31	691.0	668.4
59.32	687.0	668.4
59.33	691.0	668.5
59.34	699.0	668.5
59.35	717.0	668.5
59.36	723.0	668.6
59.37	707.0	668.6
59.38	687.0	668.6
59.39	703.0	668.6
59.4	707.0	668.7
59.41	721.0	668.7
59.42	713.0	668.7
59.43	703.0	668.8
59.44	682.0	668.8
59.45	684.0	668.8
59.46	687.0	668.8
59.47	681.0	668.9
59.48	692.0	668.9
59.49	681.0	668.9
59.5	667.0	668.9
59.51	654.0	669.0
59.52	677.0	669.0
59.53	705.0	669.0
59.54	682.0	669.1
59.55	697.0	669.1
59.56	694.0	669.1
59.57	680.0	669.1
59.58	676.0	669.2
59.59	682.0	669.2
59.6	677.0	669.2
59.61	663.0	669.2
59.62	669.0	669.3
59.63	671.0	669.3
59.64	675.0	669.3
59.65	694.0	669.3
59.66	707.0	669.3
59.67	683.0	669.4
59.68	679.0	669.4
59.69	672.0	669.4
59.7	672.0	669.4
59.71	646.0	669.5
59.72	629.0	669.5
59.73	652.0	669.5
59.74	665.0	669.5
59.75	663.0	669.5
59.76	659.0	669.6
59.77	673.0	669.6
59.78	688.0	669.6
59.79	693.0	669.6
59.8	709.0	669.7
59.81	680.0	669.7
59.82	643.0	669.7
59.83	663.0	669.7
59.84	666.0	669.7
59.85	695.0	669.7
59.86	678.0	669.8
59.87	678.0	669.8
59.88	677.0	669.8
59.89	654.0	669.8
59.9	666.0	669.8
59.91	677.0	669.9
59.92	682.0	669.9
59.93	671.0	669.9
59.94	639.0	669.9
59.95	652.0	669.9
59.96	663.0	669.9
59.97	684.0	670.0
59.98	682.0	670.0
59.99	672.0	670.0
60.0	678.0	670.0
60.01	681.0	670.0
60.02	685.0	670.0
60.03	669.0	670.1
60.04	664.0	670.1
60.05	664.0	670.1
60.06	673.0	670.1
60.07	675.0	670.1
60.08	678.0	670.1
60.09	666.0	670.1
60.1	688.0	670.2
60.11	697.0	670.2
60.12	716.0	670.2
60.13	724.0	670.2
60.14	705.0	670.2
60.15	688.0	670.2
60.16	698.0	670.2
60.17	686.0	670.2
60.18	699.0	670.3
60.19	650.0	670.3
60.2	660.0	670.3
60.21	697.0	670.3
60.22	698.0	670.3
60.23	681.0	670.3
60.24	690.0	670.3
60.25	697.0	670.3
60.26	707.0	670.3
60.27	703.0	670.4
60.28	716.0	670.4
60.29	716.0	670.4
60.3	718.0	670.4
60.31	684.0	670.4
60.32	692.0	670.4
60.33	694.0	670.4
60.34	697.0	670.4
60.35	697.0	670.4
60.36	678.0	670.4
60.37	729.0	670.4
60.38	736.0	670.5
60.39	717.0	670.5
60.4	687.0	670.5
60.41	709.0	670.5
60.42	738.0	670.5
60.43	763.0	670.5
60.44	762.0	670.5
60.45	745.0	670.5
60.46	746.0	670.5
60.47	766.0	670.5
60.48	761.0	670.5
60.49	771.0	670.5
60.5	786.0	670.5
60.51	789.0	670.5
60.52	763.0	670.5
60.53	784.0	670.5
60.54	823.0	670.6
60.55	833.0	670.6
60.56	819.0	670.6
60.57	809.0	670.6
60.58	818.0	670.6
60.59	817.0	670.6
60.6	842.0	670.6
60.61	857.0	670.6
60.62	873.0	670.6
60.63	832.0	670.6
60.64	811.0	670.6
60.65	837.0	670.6
60.66	814.0	670.6
60.67	799.0	670.6
60.68	821.0	670.6
60.69	839.0	670.6
60.7	832.0	670.6
60.71	834.0	670.6
60.72	862.0	670.6
60.73	826.0	670.6
60.74	801.0	670.6
60.75	793.0	670.6
60.76	803.0	670.6
60.77	791.0	670.6
60.78	802.0	670.6
60.79	815.0	670.6
60.8	792.0	670.6
60.81	757.0	670.6
60.82	713.0	670.6
60.83	793.0	670.6
60.84	770.0	670.6
60.85	754.0	670.6
60.86	747.0	670.6
60.87	725.0	670.6
60.88	732.0	670.6
60.89	726.0	670.6
60.9	699.0	670.6
60.91	689.0	670.6
60.92	692.0	670.6
60.93	684.0	670.6
60.94	692.0	670.6
60.95	727.0	670.6
60.96	724.0	670.6
60.97	709.0	670.6
60.98	690.0	670.6
60.99	664.0	670.6
61.0	687.0	670.6
61.01	717.0	670.5
61.02	719.0	670.5
61.03	700.0	670.5
61.04	676.0	670.5
61.05	659.0	670.5
61.06	667.0	670.5
61.07	661.0	670.5
61.08	668.0	670.5
61.09	683.0	670.5
61.1	707.0	670.5
61.11	696.0	670.5
61.12	674.0	670.5
61.13	641.0	670.5
61.14	643.0	670.5
61.15	675.0	670.5
61.16	695.0	670.5
61.17	663.0	670.5
61.18	685.0	670.4
61.19	668.0	670.4
61.2	675.0	670.4
61.21	702.0	670.4
61.22	685.0	670.4
61.23	703.0	670.4
61.24	706.0	670.4
61.25	705.0	670.4
61.26	678.0	670.4
61.27	677.0	670.4
61.28	687.0	670.4
61.29	655.0	670.4
61.3	666.0	670.3
61.31	687.0	670.3
61.32	675.0	670.3
61.33	690.0	670.3
61.34	689.0	670.3
61.35	674.0	670.3
61.36	674.0	670.3
61.37	678.0	670.3
61.38	669.0	670.3
61.39	689.0	670.2
61.4	705.0	670.2
61.41	694.0	670.2
61.42	678.0	670.2
61.43	711.0	670.2
61.44	736.0	670.2
61.45	716.0	670.2
61.46	688.0	670.2
61.47	673.0	670.1
61.48	706.0	670.1
61.49	735.0	670.1
61.5	706.0	670.1
61.51	718.0	670.1
61.52	692.0	670.1
61.53	707.0	670.1
61.54	708.0	670.1
61.55	688.0	670.0
61.56	679.0	670.0
61.57	704.0	670.0
61.58	697.0	670.0
61.59	726.0	670.0
61.6	708.0	670.0
61.61	698.0	670.0
61.62	721.0	669.9
61.63	694.0	669.9
61.64	698.0	669.9
61.65	698.0	669.9
61.66	719.0	669.9
61.67	706.0	669.9
61.68	705.0	669.8
61.69	716.0	669.8
61.7	719.0	669.8
61.71	705.0	669.8
61.72	710.0	669.8
61.73	717.0	669.8
61.74	710.0	669.7
61.75	694.0	669.7
61.76	699.0	669.7
61.77	715.0	669.7
61.78	712.0	669.7
61.79	710.0	669.6
61.8	719.0	669.6
61.81	739.0	669.6
61.82	760.0	669.6
61.83	752.0	669.6
61.84	721.0	669.6
61.85	721.0	669.5
61.86	722.0	669.5
61.87	716.0	669.5
61.88	711.0	669.5
61.89	723.0	669.5
61.9	740.0	669.4
61.91	755.0	669.4
61.92	750.0	669.4
61.93	744.0	669.4
61.94	735.0	669.4
61.95	741.0	669.3
61.96	766.0	669.3
61.97	791.0	669.3
61.98	795.0	669.3
61.99	771.0	669.3
62.0	762.0	669.2
62.01	745.0	669.2
62.02	759.0	669.2
62.03	755.0	669.2
62.04	783.0	669.1
62.05	798.0	669.1
62.06	791.0	669.1
62.07	824.0	669.1
62.08	843.0	669.1
62.09	852.0	669.0
62.1	847.0	669.0
62.11	823.0	669.0
62.12	802.0	669.0
62.13	781.0	668.9
62.14	812.0	668.9
62.15	823.0	668.9
62.16	815.0	668.9
62.17	844.0	668.8
62.18	838.0	668.8
62.19	828.0	668.8
62.2	853.0	668.8
62.21	837.0	668.7
62.22	843.0	668.7
62.23	843.0	668.7
62.24	881.0	668.7
62.25	859.0	668.6
62.26	840.0	668.6
62.27	858.0	668.6
62.28	894.0	668.6
62.29	904.0	668.5
62.3	885.0	668.5
62.31	892.0	668.5
62.32	911.0	668.5
62.33	885.0	668.4
62.34	880.0	668.4
62.35	886.0	668.4
62.36	899.0	668.3
62.37	910.0	668.3
62.38	925.0	668.3
62.39	931.0	668.3
62.4	910.0	668.2
62.41	928.0	668.2
62.42	909.0	668.2
62.43	906.0	668.2
62.44	912.0	668.1
62.45	903.0	668.1
62.46	941.0	668.1
62.47	918.0	668.0
62.48	902.0	668.0
62.49	927.0	668.0
62.5	913.0	668.0
62.51	885.0	667.9
62.52	947.0	667.9
62.53	923.0	667.9
62.54	878.0	667.8
62.55	916.0	667.8
62.56	936.0	667.8
62.57	923.0	667.7
62.58	899.0	667.7
62.59	921.0	667.7
62.6	902.0	667.7
62.61	925.0	667.6
62.62	940.0	667.6
62.63	972.0	667.6
62.64	952.0	667.5
62.65	942.0	667.5
62.66	939.0	667.5
62.67	920.0	667.4
62.68	970.0	667.4
62.69	951.0	667.4
62.7	975.0	667.3
62.71	921.0	667.3
62.72	949.0	667.3
62.73	963.0	667.2
62.74	941.0	667.2
62.75	942.0	667.2
62.76	926.0	667.1
62.77	943.0	667.1
62.78	924.0	667.1
62.79	963.0	667.0
62.8	978.0	667.0
62.81	983.0	667.0
62.82	977.0	666.9
62.83	950.0	666.9
62.84	930.0	666.9
62.85	919.0	666.8
62.86	958.0	666.8
62.87	966.0	666.8
62.88	957.0	666.7
62.89	968.0	666.7
62.9	968.0	666.7
62.91	946.0	666.6
62.92	961.0	666.6
62.93	989.0	666.6
62.94	932.0	666.5
62.95	915.0	666.5
62.96	928.0	666.5
62.97	923.0	666.4
62.98	941.0	666.4
62.99	965.0	666.3
63.0	988.0	666.3
63.01	965.0	666.3
63.02	988.0	666.2
63.03	1007.0	666.2
63.04	978.0	666.2
63.05	986.0	666.1
63.06	954.0	666.1
63.07	971.0	666.1
63.08	1004.0	666.0
63.09	978.0	666.0
63.1	991.0	665.9
63.11	973.0	665.9
63.12	960.0	665.9
63.13	1029.0	665.8
63.14	1011.0	665.8
63.15	994.0	665.7
63.16	1006.0	665.7
63.17	1043.0	665.7
63.18	1071.0	665.6
63.19	1033.0	665.6
63.2	1058.0	665.6
63.21	1053.0	665.5
63.22	1064.0	665.5
63.23	1096.0	665.4
63.24	1099.0	665.4
63.25	1100.0	665.4
63.26	1066.0	665.3
63.27	1122.0	665.3
63.28	1160.0	665.2
63.29	1158.0	665.2
63.3	1149.0	665.2
63.31	1159.0	665.1
63.32	1146.0	665.1
63.33	1161.0	665.0
63.34	1229.0	665.0
63.35	1246.0	665.0
63.36	1229.0	664.9
63.37	1235.0	664.9
63.38	1238.0	664.8
63.39	1270.0	664.8
63.4	1299.0	664.8
63.41	1340.0	664.7
63.42	1334.0	664.7
63.43	1341.0	664.6
63.44	1343.0	664.6
63.45	1365.0	664.5
63.46	1400.0	664.5
63.47	1372.0	664.5
63.48	1355.0	664.4
63.49	1353.0	664.4
63.5	1386.0	664.3
63.51	1338.0	664.3
63.52	1291.0	664.3
63.53	1369.0	664.2
63.54	1342.0	664.2
63.55	1301.0	664.1
63.56	1271.0	664.1
63.57	1293.0	664.0
63.58	1256.0	664.0
63.59	1238.0	663.9
63.6	1199.0	663.9
63.61	1228.0	663.9
63.62	1234.0	663.8
63.63	1212.0	663.8
63.64	1159.0	663.7
63.65	1176.0	663.7
63.66	1182.0	663.6
63.67	1160.0	663.6
63.68	1151.0	663.6
63.69	1124.0	663.5
63.7	1078.0	663.5
63.71	1058.0	663.4
63.72	1072.0	663.4
63.73	1031.0	663.3
63.74	1029.0	663.3
63.75	1005.0	663.2
63.76	991.0	663.2
63.77	1022.0	663.1
63.78	1039.0	663.1
63.79	977.0	663.1
63.8	955.0	663.0
63.81	943.0	663.0
63.82	900.0	662.9
63.83	946.0	662.9
63.84	960.0	662.8
63.85	968.0	662.8
63.86	998.0	662.7
63.87	944.0	662.7
63.88	915.0	662.6
63.89	920.0	662.6
63.9	912.0	662.5
63.91	889.0	662.5
63.92	925.0	662.5
63.93	969.0	662.4
63.94	958.0	662.4
63.95	938.0	662.3
63.96	975.0	662.3
63.97	968.0	662.2
63.98	948.0	662.2
63.99	963.0	662.1
64.0	926.0	662.1
64.01	947.0	662.0
64.02	979.0	662.0
64.03	1007.0	661.9
64.04	1010.0	661.9
64.05	999.0	661.8
64.06	1004.0	661.8
64.07	1008.0	661.7
64.08	1003.0	661.7
64.09	984.0	661.6
64.1	981.0	661.6
64.11	985.0	661.5
64.12	967.0	661.5
64.13	939.0	661.4
64.14	941.0	661.4
64.15	959.0	661.3
64.16	936.0	661.3
64.17	924.0	661.2
64.18	899.0	661.2
64.19	930.0	661.1
64.2	919.0	661.1
64.21	874.0	661.0
64.22	905.0	661.0
64.23	901.0	660.9
64.24	901.0	660.9
64.25	901.0	660.8
64.26	869.0	660.8
64.27	842.0	660.7
64.28	857.0	660.7
64.29	834.0	660.6
64.3	828.0	660.6
64.31	838.0	660.5
64.32	840.0	660.5
64.33	865.0	660.4
64.34	834.0	660.4
64.35	801.0	660.3
64.36	769.0	660.3
64.37	760.0	660.2
64.38	732.0	660.2
64.39	777.0	660.1
64.4	772.0	660.1
64.41	726.0	660.0
64.42	767.0	660.0
64.43	752.0	659.9
64.44	708.0	659.9
64.45	752.0	659.8
64.46	743.0	659.8
64.47	727.0	659.7
64.48	708.0	659.6
64.49	691.0	659.6
64.5	736.0	659.5
64.51	722.0	659.5
64.52	722.0	659.4
64.53	747.0	659.4
64.54	716.0	659.3
64.55	726.0	659.3
64.56	718.0	659.2
64.57	707.0	659.2
64.58	730.0	659.1
64.59	731.0	659.1
64.6	725.0	659.0
64.61	685.0	659.0
64.62	697.0	658.9
64.63	677.0	658.8
64.64	699.0	658.8
64.65	699.0	658.7
64.66	685.0	658.7
64.67	669.0	658.6
64.68	680.0	658.6
64.69	706.0	658.5
64.7	700.0	658.5
64.71	677.0	658.4
64.72	673.0	658.4
64.73	709.0	658.3
64.74	671.0	658.2
64.75	711.0	658.2
64.76	701.0	658.1
64.77	667.0	658.1
64.78	674.0	658.0
64.79	734.0	658.0
64.8	701.0	657.9
64.81	694.0	657.9
64.82	716.0	657.8
64.83	713.0	657.7
64.84	680.0	657.7
64.85	681.0	657.6
64.86	689.0	657.6
64.87	700.0	657.5
64.88	718.0	657.5
64.89	713.0	657.4
64.9	719.0	657.4
64.91	706.0	657.3
64.92	686.0	657.2
64.93	701.0	657.2
64.94	695.0	657.1
64.95	698.0	657.1
64.96	680.0	657.0
64.97	677.0	657.0
64.98	648.0	656.9
64.99	664.0	656.8
65.0	675.0	656.8
65.01	655.0	656.7
65.02	663.0	656.7
65.03	679.0	656.6
65.04	682.0	656.6
65.05	700.0	656.5
65.06	710.0	656.4
65.07	688.0	656.4
65.08	677.0	656.3
65.09	696.0	656.3
65.1	683.0	656.2
65.11	679.0	656.2
65.12	710.0	656.1
65.13	705.0	656.0
65.14	686.0	656.0
65.15	709.0	655.9
65.16	684.0	655.9
65.17	690.0	655.8
65.18	687.0	655.7
65.19	684.0	655.7
65.2	657.0	655.6
65.21	684.0	655.6
65.22	707.0	655.5
65.23	688.0	655.5
65.24	723.0	655.4
65.25	709.0	655.3
65.26	729.0	655.3
65.27	717.0	655.2
65.28	692.0	655.2
65.29	727.0	655.1
65.3	759.0	655.0
65.31	763.0	655.0
65.32	749.0	654.9
65.33	726.0	654.9
65.34	735.0	654.8
65.35	746.0	654.7
65.36	755.0	654.7
65.37	777.0	654.6
65.38	781.0	654.6
65.39	818.0	654.5
65.4	775.0	654.4
65.41	765.0	654.4
65.42	791.0	654.3
65.43	843.0	654.3
65.44	836.0	654.2
65.45	794.0	654.1
65.46	807.0	654.1
65.47	875.0	654.0
65.48	831.0	654.0
65.49	837.0	653.9
65.5	853.0	653.8
65.51	859.0	653.8
65.52	872.0	653.7
65.53	867.0	653.7
65.54	899.0	653.6
65.55	921.0	653.5
65.56	923.0	653.5
65.57	960.0	653.4
65.58	1029.0	653.3
65.59	1046.0	653.3
65.6	1061.0	653.2
65.61	1034.0	653.2
65.62	1077.0	653.1
65.63	1083.0	653.0
65.64	1128.0	653.0
65.65	1199.0	652.9
65.66	1222.0	652.9
65.67	1235.0	652.8
65.68	1235.0	652.7
65.69	1258.0	652.7
65.7	1318.0	652.6
65.71	1340.0	652.5
65.72	1342.0	652.5
65.73	1365.0	652.4
65.74	1423.0	652.4
65.75	1450.0	652.3
65.76	1445.0	652.2
65.77	1409.0	652.2
65.78	1377.0	652.1
65.79	1360.0	652.0
65.8	1347.0	652.0
65.81	1333.0	651.9
65.82	1341.0	651.9
65.83	1326.0	651.8
65.84	1307.0	651.7
65.85	1286.0	651.7
65.86	1305.0	651.6
65.87	1280.0	651.5
65.88	1289.0	651.5
65.89	1281.0	651.4
65.9	1238.0	651.3
65.91	1246.0	651.3
65.92	1232.0	651.2
65.93	1216.0	651.2
65.94	1195.0	651.1
65.95	1149.0	651.0
65.96	1153.0	651.0
65.97	1140.0	650.9
65.98	1101.0	650.8
65.99	1085.0	650.8
66.0	1060.0	650.7
66.01	1014.0	650.6
66.02	1041.0	650.6
66.03	1030.0	650.5
66.04	973.0	650.4
66.05	920.0	650.4
66.06	913.0	650.3
66.07	892.0	650.3
66.08	923.0	650.2
66.09	891.0	650.1
66.1	874.0	650.1
66.11	879.0	650.0
66.12	861.0	649.9
66.13	824.0	649.9
66.14	848.0	649.8
66.15	834.0	649.7
66.16	768.0	649.7
66.17	787.0	649.6
66.18	803.0	649.5
66.19	779.0	649.5
66.2	797.0	649.4
66.21	754.0	649.3
66.22	702.0	649.3
66.23	756.0	649.2
66.24	760.0	649.1
66.25	771.0	649.1
66.26	796.0	649.0
66.27	727.0	648.9
66.28	751.0	648.9
66.29	757.0	648.8
66.3	724.0	648.7
66.31	700.0	648.7
66.32	672.0	648.6
66.33	706.0	648.5
66.34	727.0	648.5
66.35	724.0	648.4
66.36	731.0	648.3
66.37	739.0	648.3
66.38	721.0	648.2
66.39	726.0	648.1
66.4	721.0	648.1
66.41	744.0	648.0
66.42	727.0	647.9
66.43	715.0	647.9
66.44	720.0	647.8
66.45	704.0	647.7
66.46	710.0	647.7
66.47	732.0	647.6
66.48	707.0	647.5
66.49	722.0	647.5
66.5	729.0	647.4
66.51	692.0	647.3
66.52	712.0	647.3
66.53	733.0	647.2
66.54	706.0	647.1
66.55	680.0	647.1
66.56	695.0	647.0
66.57	711.0	646.9
66.58	704.0	646.9
66.59	725.0	646.8
66.6	724.0	646.7
66.61	724.0	646.7
66.62	706.0	646.6
66.63	694.0	646.5
66.64	697.0	646.4
66.65	688.0	646.4
66.66	719.0	646.3
66.67	685.0	646.2
66.68	664.0	646.2
66.69	693.0	646.1
66.7	715.0	646.0
66.71	696.0	646.0
66.72	711.0	645.9
66.73	738.0	645.8
66.74	727.0	645.8
66.75	696.0	645.7
66.76	699.0	645.6
66.77	712.0	645.6
66.78	714.0	645.5
66.79	731.0	645.4
66.8	740.0	645.3
66.81	725.0	645.3
66.82	718.0	645.2
66.83	709.0	645.1
66.84	712.0	645.1
66.85	719.0	645.0
66.86	733.0	644.9
66.87	710.0	644.9
66.88	702.0	644.8
66.89	696.0	644.7
66.9	698.0	644.6
66.91	701.0	644.6
66.92	734.0	644.5
66.93	709.0	644.4
66.94	713.0	644.4
66.95	751.0	644.3
66.96	733.0	644.2
66.97	694.0	644.2
66.98	687.0	644.1
66.99	697.0	644.0
67.0	682.0	643.9
67.01	688.0	643.9
67.02	693.0	643.8
67.03	734.0	643.7
67.04	726.0	643.7
67.05	726.0	643.6
67.06	720.0	643.5
67.07	739.0	643.4
67.08	715.0	643.4
67.09	721.0	643.3
67.1	704.0	643.2
67.11	690.0	643.2
67.12	726.0	643.1
67.13	708.0	643.0
67.14	676.0	642.9
67.15	692.0	642.9
67.16	696.0	642.8
67.17	704.0	642.7
67.18	720.0	642.7
67.19	723.0	642.6
67.2	694.0	642.5
67.21	707.0	642.4
67.22	730.0	642.4
67.23	770.0	642.3
67.24	766.0	642.2
67.25	780.0	642.1
67.26	787.0	642.1
67.27	773.0	642.0
67.28	792.0	641.9
67.29	774.0	641.9
67.3	802.0	641.8
67.31	820.0	641.7
67.32	835.0	641.6
67.33	831.0	641.6
67.34	809.0	641.5
67.35	822.0	641.4
67.36	849.0	641.4
67.37	847.0	641.3
67.38	831.0	641.2
67.39	805.0	641.1
67.4	828.0	641.1
67.41	876.0	641.0
67.42	885.0	640.9
67.43	861.0	640.8
67.44	857.0	640.8
67.45	906.0	640.7
67.46	869.0	640.6
67.47	853.0	640.5
67.48	836.0	640.5
67.49	818.0	640.4
67.5	861.0	640.3
67.51	856.0	640.3
67.52	799.0	640.2
67.53	834.0	640.1
67.54	814.0	640.0
67.55	834.0	640.0
67.56	806.0	639.9
67.57	861.0	639.8
67.58	851.0	639.7
67.59	827.0	639.7
67.6	797.0	639.6
67.61	841.0	639.5
67.62	806.0	639.4
67.63	792.0	639.4
67.64	791.0	639.3
67.65	761.0	639.2
67.66	781.0	639.1
67.67	794.0	639.1
67.68	788.0	639.0
67.69	771.0	638.9
67.7	730.0	638.8
67.71	694.0	638.8
67.72	712.0	638.7
67.73	737.0	638.6
67.74	731.0	638.5
67.75	757.0	638.5
67.76	707.0	638.4
67.77	692.0	638.3
67.78	695.0	638.2
67.79	691.0	638.2
67.8	703.0	638.1
67.81	752.0	638.0
67.82	716.0	637.9
67.83	677.0	637.9
67.84	702.0	637.8
67.85	736.0	637.7
67.86	720.0	637.6
67.87	707.0	637.6
67.88	698.0	637.5
67.89	688.0	637.4
67.9	687.0	637.3
67.91	679.0	637.3
67.92	658.0	637.2
67.93	675.0	637.1
67.94	700.0	637.0
67.95	673.0	637.0
67.96	676.0	636.9
67.97	696.0	636.8
67.98	657.0	636.7
67.99	658.0	636.6
68.0	654.0	636.6
68.01	679.0	636.5
68.02	674.0	636.4
68.03	660.0	636.3
68.04	647.0	636.3
68.05	670.0	636.2
68.06	690.0	636.1
68.07	680.0	636.0
68.08	670.0	636.0
68.09	676.0	635.9
68.1	663.0	635.8
68.11	658.0	635.7
68.12	696.0	635.6
68.13	712.0	635.6
68.14	677.0	635.5
68.15	660.0	635.4
68.16	680.0	635.3
68.17	676.0	635.3
68.18	673.0	635.2
68.19	658.0	635.1
68.2	699.0	635.0
68.21	686.0	635.0
68.22	667.0	634.9
68.23	704.0	634.8
68.24	697.0	634.7
68.25	690.0	634.6
68.26	656.0	634.6
68.27	640.0	634.5
68.28	697.0	634.4
68.29	709.0	634.3
68.3	690.0	634.3
68.31	705.0	634.2
68.32	703.0	634.1
68.33	711.0	634.0
68.34	708.0	633.9
68.35	699.0	633.9
68.36	706.0	633.8
68.37	698.0	633.7
68.38	684.0	633.6
68.39	697.0	633.6
68.4	718.0	633.5
68.41	662.0	633.4
68.42	694.0	633.3
68.43	723.0	633.2
68.44	730.0	633.2
68.45	709.0	633.1
68.46	692.0	633.0
68.47	719.0	632.9
68.48	706.0	632.8
68.49	731.0	632.8
68.5	757.0	632.7
68.51	731.0	632.6
68.52	735.0	632.5
68.53	750.0	632.4
68.54	742.0	632.4
68.55	712.0	632.3
68.56	704.0	632.2
68.57	744.0	632.1
68.58	731.0	632.1
68.59	717.0	632.0
68.6	726.0	631.9
68.61	732.0	631.8
68.62	712.0	631.7
68.63	750.0	631.7
68.64	733.0	631.6
68.65	722.0	631.5
68.66	728.0	631.4
68.67	741.0	631.3
68.68	779.0	631.3
68.69	775.0	631.2
68.7	770.0	631.1
68.71	747.0	631.0
68.72	769.0	630.9
68.73	776.0	630.9
68.74	762.0	630.8
68.75	765.0	630.7
68.76	751.0	630.6
68.77	742.0	630.5
68.78	718.0	630.5
68.79	763.0	630.4
68.8	789.0	630.3
68.81	793.0	630.2
68.82	822.0	630.1
68.83	775.0	630.1
68.84	776.0	630.0
68.85	812.0	629.9
68.86	807.0	629.8
68.87	782.0	629.7
68.88	810.0	629.7
68.89	781.0	629.6
68.9	800.0	629.5
68.91	803.0	629.4
68.92	773.0	629.3
68.93	806.0	629.3
68.94	784.0	629.2
68.95	794.0	629.1
68.96	812.0	629.0
68.97	840.0	628.9
68.98	844.0	628.8
68.99	847.0	628.8
69.0	863.0	628.7
69.01	861.0	628.6
69.02	861.0	628.5
69.03	840.0	628.4
69.04	855.0	628.4
69.05	859.0	628.3
69.06	816.0	628.2
69.07	849.0	628.1
69.08	827.0	628.0
69.09	831.0	628.0
69.1	852.0	627.9
69.11	822.0	627.8
69.12	835.0	627.7
69.13	866.0	627.6
69.14	845.0	627.5
69.15	820.0	627.5
69.16	793.0	627.4
69.17	790.0	627.3
69.18	807.0	627.2
69.19	807.0	627.1
69.2	810.0	627.1
69.21	810.0	627.0
69.22	826.0	626.9
69.23	800.0	626.8
69.24	777.0	626.7
69.25	797.0	626.6
69.26	803.0	626.6
69.27	816.0	626.5
69.28	826.0	626.4
69.29	775.0	626.3
69.3	765.0	626.2
69.31	772.0	626.1
69.32	796.0	626.1
69.33	792.0	626.0
69.34	764.0	625.9
69.35	741.0	625.8
69.36	724.0	625.7
69.37	732.0	625.7
69.38	792.0	625.6
69.39	789.0	625.5
69.4	745.0	625.4
69.41	768.0	625.3
69.42	761.0	625.2
69.43	753.0	625.2
69.44	743.0	625.1
69.45	715.0	625.0
69.46	682.0	624.9
69.47	756.0	624.8
69.48	785.0	624.7
69.49	731.0	624.7
69.5	720.0	624.6
69.51	700.0	624.5
69.52	689.0	624.4
69.53	730.0	624.3
69.54	742.0	624.2
69.55	719.0	624.2
69.56	719.0	624.1
69.57	725.0	624.0
69.58	703.0	623.9
69.59	703.0	623.8
69.6	700.0	623.7
69.61	723.0	623.7
69.62	755.0	623.6
69.63	755.0	623.5
69.64	720.0	623.4
69.65	701.0	623.3
69.66	697.0	623.2
69.67	718.0	623.2
69.68	681.0	623.1
69.69	688.0	623.0
69.7	686.0	622.9
69.71	734.0	622.8
69.72	727.0	622.7
69.73	679.0	622.6
69.74	689.0	622.6
69.75	700.0	622.5
69.76	712.0	622.4
69.77	763.0	622.3
69.78	700.0	622.2
69.79	674.0	622.1
69.8	737.0	622.1
69.81	740.0	622.0
69.82	701.0	621.9
69.83	697.0	621.8
69.84	745.0	621.7
69.85	738.0	621.6
69.86	763.0	621.6
69.87	748.0	621.5
69.88	732.0	621.4
69.89	693.0	621.3
69.9	704.0	621.2
69.91	717.0	621.1
69.92	714.0	621.0
69.93	702.0	621.0
69.94	706.0	620.9
69.95	735.0	620.8
69.96	721.0	620.7
69.97	739.0	620.6
69.98	699.0	620.5
69.99	694.0	620.5
70.0	701.0	620.4
70.01	732.0	620.3
70.02	744.0	620.2
70.03	742.0	620.1
70.04	732.0	620.0
70.05	710.0	619.9
70.06	726.0	619.9
70.07	710.0	619.8
70.08	748.0	619.7
70.09	718.0	619.6
70.1	717.0	619.5
70.11	709.0	619.4
70.12	701.0	619.3
70.13	721.0	619.3
70.14	710.0	619.2
70.15	744.0	619.1
70.16	756.0	619.0
70.17	733.0	618.9
70.18	709.0	618.8
70.19	711.0	618.7
70.2	737.0	618.7
70.21	780.0	618.6
70.22	774.0	618.5
70.23	769.0	618.4
70.24	750.0	618.3
70.25	725.0	618.2
70.26	761.0	618.1
70.27	798.0	618.1
70.28	791.0	618.0
70.29	762.0	617.9
70.3	741.0	617.8
70.31	707.0	617.7
70.32	731.0	617.6
70.33	721.0	617.5
70.34	738.0	617.5
70.35	760.0	617.4
70.36	763.0	617.3
70.37	748.0	617.2
70.38	751.0	617.1
70.39	780.0	617.0
70.4	773.0	616.9
70.41	758.0	616.8
70.42	745.0	616.8
70.43	745.0	616.7
70.44	760.0	616.6
70.45	755.0	616.5
70.46	731.0	616.4
70.47	748.0	616.3
70.48	758.0	616.2
70.49	750.0	616.2
70.5	750.0	616.1
70.51	769.0	616.0
70.52	745.0	615.9
70.53	723.0	615.8
70.54	717.0	615.7
70.55	733.0	615.6
70.56	718.0	615.5
70.57	743.0	615.5
70.58	736.0	615.4
70.59	729.0	615.3
70.6	750.0	615.2
70.61	746.0	615.1
70.62	735.0	615.0
70.63	715.0	614.9
70.64	769.0	614.9
70.65	774.0	614.8
70.66	721.0	614.7
70.67	711.0	614.6
70.68	716.0	614.5
70.69	703.0	614.4
70.7	716.0	614.3
70.71	680.0	614.2
70.72	657.0	614.2
70.73	740.0	614.1
70.74	726.0	614.0
70.75	693.0	613.9
70.76	677.0	613.8
70.77	685.0	613.7
70.78	700.0	613.6
70.79	706.0	613.5
70.8	699.0	613.5
70.81	693.0	613.4
70.82	672.0	613.3
70.83	725.0	613.2
70.84	729.0	613.1
70.85	679.0	613.0
70.86	692.0	612.9
70.87	675.0	612.8
70.88	662.0	612.8
70.89	679.0	612.7
70.9	716.0	612.6
70.91	703.0	612.5
70.92	710.0	612.4
70.93	698.0	612.3
70.94	650.0	612.2
70.95	658.0	612.1
70.96	678.0	612.0
70.97	639.0	612.0
70.98	649.0	611.9
70.99	667.0	611.8
71.0	653.0	611.7
71.01	655.0	611.6
71.02	647.0	611.5
71.03	636.0	611.4
71.04	657.0	611.3
71.05	653.0	611.3
71.06	656.0	611.2
71.07	683.0	611.1
71.08	687.0	611.0
71.09	676.0	610.9
71.1	691.0	610.8
71.11	686.0	610.7
71.12	658.0	610.6
71.13	657.0	610.5
71.14	660.0	610.5
71.15	618.0	610.4
71.16	607.0	610.3
71.17	630.0	610.2
71.18	623.0	610.1
71.19	640.0	610.0
71.2	623.0	609.9
71.21	626.0	609.8
71.22	648.0	609.8
71.23	656.0	609.7
71.24	641.0	609.6
71.25	611.0	609.5
71.26	599.0	609.4
71.27	643.0	609.3
71.28	655.0	609.2
71.29	654.0	609.1
71.3	633.0	609.0
71.31	622.0	609.0
71.32	653.0	608.9
71.33	665.0	608.8
71.34	660.0	608.7
71.35	617.0	608.6
71.36	613.0	608.5
71.37	649.0	608.4
71.38	621.0	608.3
71.39	612.0	608.2
71.4	633.0	608.2
71.41	591.0	608.1
71.42	586.0	608.0
71.43	627.0	607.9
71.44	634.0	607.8
71.45	625.0	607.7
71.46	637.0	607.6
71.47	667.0	607.5
71.48	641.0	607.4
71.49	610.0	607.3
71.5	631.0	607.3
71.51	647.0	607.2
71.52	635.0	607.1
71.53	630.0	607.0
71.54	636.0	606.9
71.55	635.0	606.8
71.56	617.0	606.7
71.57	630.0	606.6
71.58	625.0	606.5
71.59	609.0	606.5
71.6	586.0	606.4
71.61	632.0	606.3
71.62	628.0	606.2
71.63	627.0	606.1
71.64	614.0	606.0
71.65	604.0	605.9
71.66	623.0	605.8
71.67	637.0	605.7
71.68	629.0	605.6
71.69	633.0	605.6
71.7	637.0	605.5
71.71	625.0	605.4
71.72	607.0	605.3
71.73	617.0	605.2
71.74	622.0	605.1
71.75	627.0	605.0
71.76	616.0	604.9
71.77	620.0	604.8
71.78	603.0	604.7
71.79	613.0	604.7
71.8	618.0	604.6
71.81	625.0	604.5
71.82	646.0	604.4
71.83	614.0	604.3
71.84	631.0	604.2
71.85	631.0	604.1
71.86	644.0	604.0
71.87	614.0	603.9
71.88	624.0	603.8
71.89	620.0	603.8
71.9	620.0	603.7
71.91	632.0	603.6
71.92	647.0	603.5
71.93	662.0	603.4
71.94	642.0	603.3
71.95	658.0	603.2
71.96	656.0	603.1
71.97	616.0	603.0
71.98	616.0	602.9
71.99	647.0	602.9
72.0	660.0	602.8
72.01	634.0	602.7
72.02	609.0	602.6
72.03	665.0	602.5
72.04	634.0	602.4
72.05	605.0	602.3
72.06	612.0	602.2
72.07	621.0	602.1
72.08	636.0	602.0
72.09	627.0	602.0
72.1	636.0	601.9
72.11	625.0	601.8
72.12	626.0	601.7
72.13	642.0	601.6
72.14	675.0	601.5
72.15	658.0	601.4
72.16	650.0	601.3
72.17	654.0	601.2
72.18	663.0	601.1
72.19	654.0	601.1
72.2	660.0	601.0
72.21	628.0	600.9
72.22	669.0	600.8
72.23	657.0	600.7
72.24	653.0	600.6
72.25	661.0	600.5
72.26	707.0	600.4
72.27	698.0	600.3
72.28	668.0	600.2
72.29	664.0	600.1
72.3	684.0	600.1
72.31	702.0	600.0
72.32	719.0	599.9
72.33	694.0	599.8
72.34	651.0	599.7
72.35	678.0	599.6
72.36	681.0	599.5
72.37	678.0	599.4
72.38	695.0	599.3
72.39	680.0	599.2
72.4	668.0	599.2
72.41	689.0	599.1
72.42	652.0	599.0
72.43	658.0	598.9
72.44	690.0	598.8
72.45	666.0	598.7
72.46	638.0	598.6
72.47	660.0	598.5
72.48	655.0	598.4
72.49	660.0	598.3
72.5	656.0	598.2
72.51	655.0	598.2
72.52	646.0	598.1
72.53	671.0	598.0
72.54	684.0	597.9
72.55	653.0	597.8
72.56	641.0	597.7
72.57	665.0	597.6
72.58	656.0	597.5
72.59	650.0	597.4
72.6	651.0	597.3
72.61	650.0	597.3
72.62	667.0	597.2
72.63	670.0	597.1
72.64	691.0	597.0
72.65	687.0	596.9
72.66	652.0	596.8
72.67	642.0	596.7
72.68	627.0	596.6
72.69	612.0	596.5
72.7	630.0	596.4
72.71	635.0	596.3
72.72	651.0	596.3
72.73	646.0	596.2
72.74	632.0	596.1
72.75	622.0	596.0
72.76	616.0	595.9
72.77	616.0	595.8
72.78	601.0	595.7
72.79	596.0	595.6
72.8	598.0	595.5
72.81	622.0	595.4
72.82	645.0	595.3
72.83	626.0	595.3
72.84	618.0	595.2
72.85	642.0	595.1
72.86	657.0	595.0
72.87	642.0	594.9
72.88	601.0	594.8
72.89	629.0	594.7
72.9	641.0	594.6
72.91	659.0	594.5
72.92	624.0	594.4
72.93	625.0	594.4
72.94	604.0	594.3
72.95	596.0	594.2
72.96	621.0	594.1
72.97	642.0	594.0
72.98	632.0	593.9
72.99	606.0	593.8
73.0	624.0	593.7
73.01	617.0	593.6
73.02	609.0	593.5
73.03	632.0	593.4
73.04	641.0	593.4
73.05	627.0	593.3
73.06	603.0	593.2
73.07	612.0	593.1
73.08	613.0	593.0
73.09	579.0	592.9
73.1	596.0	592.8
73.11	592.0	592.7
73.12	672.0	592.6
73.13	672.0	592.5
73.14	637.0	592.5
73.15	631.0	592.4
73.16	648.0	592.3
73.17	627.0	592.2
73.18	610.0	592.1
73.19	620.0	592.0
73.2	639.0	591.9
73.21	657.0	591.8
73.22	649.0	591.7
73.23	610.0	591.6
73.24	644.0	591.6
73.25	620.0	591.5
73.26	581.0	591.4
73.27	576.0	591.3
73.28	605.0	591.2
73.29	629.0	591.1
73.3	637.0	591.0
73.31	597.0	590.9
73.32	616.0	590.8
73.33	632.0	590.7
73.34	644.0	590.7
73.35	622.0	590.6
73.36	625.0	590.5
73.37	646.0	590.4
73.38	629.0	590.3
73.39	615.0	590.2
73.4	640.0	590.1
73.41	658.0	590.0
73.42	658.0	589.9
73.43	645.0	589.8
73.44	645.0	589.7
73.45	617.0	589.7
73.46	599.0	589.6
73.47	592.0	589.5
73.48	595.0	589.4
73.49	628.0	589.3
73.5	630.0	589.2
73.51	606.0	589.1
73.52	597.0	589.0
73.53	636.0	588.9
73.54	634.0	588.9
73.55	629.0	588.8
73.56	623.0	588.7
73.57	640.0	588.6
73.58	633.0	588.5
73.59	631.0	588.4
73.6	637.0	588.3
73.61	649.0	588.2
73.62	634.0	588.1
73.63	659.0	588.0
73.64	632.0	588.0
73.65	652.0	587.9
73.66	649.0	587.8
73.67	626.0	587.7
73.68	629.0	587.6
73.69	653.0	587.5
73.7	634.0	587.4
73.71	647.0	587.3
73.72	678.0	587.2
73.73	680.0	587.1
73.74	646.0	587.1
73.75	649.0	587.0
73.76	673.0	586.9
73.77	680.0	586.8
73.78	671.0	586.7
73.79	695.0	586.6
73.8	703.0	586.5
73.81	675.0	586.4
73.82	684.0	586.3
73.83	686.0	586.3
73.84	707.0	586.2
73.85	720.0	586.1
73.86	724.0	586.0
73.87	735.0	585.9
73.88	730.0	585.8
73.89	718.0	585.7
73.9	681.0	585.6
73.91	718.0	585.5
73.92	727.0	585.5
73.93	711.0	585.4
73.94	724.0	585.3
73.95	765.0	585.2
73.96	781.0	585.1
73.97	734.0	585.0
73.98	691.0	584.9
73.99	711.0	584.8
74.0	730.0	584.7
74.01	724.0	584.7
74.02	701.0	584.6
74.03	694.0	584.5
74.04	725.0	584.4
74.05	730.0	584.3
74.06	724.0	584.2
74.07	711.0	584.1
74.08	685.0	584.0
74.09	695.0	583.9
74.1	693.0	583.9
74.11	733.0	583.8
74.12	710.0	583.7
74.13	717.0	583.6
74.14	706.0	583.5
74.15	705.0	583.4
74.16	740.0	583.3
74.17	726.0	583.2
74.18	713.0	583.1
74.19	680.0	583.1
74.2	690.0	583.0
74.21	684.0	582.9
74.22	689.0	582.8
74.23	698.0	582.7
74.24	679.0	582.6
74.25	682.0	582.5
74.26	705.0	582.4
74.27	704.0	582.4
74.28	688.0	582.3
74.29	680.0	582.2
74.3	686.0	582.1
74.31	679.0	582.0
74.32	644.0	581.9
74.33	653.0	581.8
74.34	660.0	581.7
74.35	675.0	581.6
74.36	703.0	581.6
74.37	667.0	581.5
74.38	653.0	581.4
74.39	685.0	581.3
74.4	670.0	581.2
74.41	666.0	581.1
74.42	694.0	581.0
74.43	703.0	580.9
74.44	680.0	580.9
74.45	668.0	580.8
74.46	702.0	580.7
74.47	699.0	580.6
74.48	657.0	580.5
74.49	650.0	580.4
74.5	670.0	580.3
74.51	687.0	580.2
74.52	687.0	580.2
74.53	698.0	580.1
74.54	671.0	580.0
74.55	707.0	579.9
74.56	701.0	579.8
74.57	655.0	579.7
74.58	667.0	579.6
74.59	679.0	579.6
74.6	675.0	579.5
74.61	669.0	579.4
74.62	709.0	579.3
74.63	696.0	579.2
74.64	694.0	579.1
74.65	724.0	579.0
74.66	710.0	578.9
74.67	718.0	578.9
74.68	702.0	578.8
74.69	678.0	578.7
74.7	716.0	578.6
74.71	740.0	578.5
74.72	737.0	578.4
74.73	719.0	578.3
74.74	723.0	578.2
74.75	715.0	578.2
74.76	697.0	578.1
74.77	722.0	578.0
74.78	682.0	577.9
74.79	691.0	577.8
74.8	729.0	577.7
74.81	740.0	577.6
74.82	729.0	577.6
74.83	711.0	577.5
74.84	714.0	577.4
74.85	714.0	577.3
74.86	720.0	577.2
74.87	730.0	577.1
74.88	745.0	577.0
74.89	742.0	577.0
74.9	745.0	576.9
74.91	740.0	576.8
74.92	737.0	576.7
74.93	775.0	576.6
74.94	760.0	576.5
74.95	753.0	576.4
74.96	773.0	576.4
74.97	790.0	576.3
74.98	734.0	576.2
74.99	765.0	576.1
75.0	760.0	576.0
75.01	752.0	575.9
75.02	729.0	575.8
75.03	752.0	575.8
75.04	761.0	575.7
75.05	761.0	575.6
75.06	778.0	575.5
75.07	770.0	575.4
75.08	732.0	575.3
75.09	750.0	575.3
75.1	807.0	575.2
75.11	796.0	575.1
75.12	752.0	575.0
75.13	791.0	574.9
75.14	796.0	574.8
75.15	734.0	574.7
75.16	779.0	574.7
75.17	769.0	574.6
75.18	793.0	574.5
75.19	763.0	574.4
75.2	816.0	574.3
75.21	782.0	574.2
75.22	761.0	574.2
75.23	769.0	574.1
75.24	781.0	574.0
75.25	783.0	573.9
75.26	777.0	573.8
75.27	810.0	573.7
75.28	828.0	573.6
75.29	777.0	573.6
75.3	751.0	573.5
75.31	792.0	573.4
75.32	776.0	573.3
75.33	744.0	573.2
75.34	780.0	573.1
75.35	783.0	573.1
75.36	808.0	573.0
75.37	786.0	572.9
75.38	782.0	572.8
75.39	773.0	572.7
75.4	750.0	572.6
75.41	801.0	572.6
75.42	820.0	572.5
75.43	820.0	572.4
75.44	794.0	572.3
75.45	768.0	572.2
75.46	775.0	572.1
75.47	782.0	572.1
75.48	762.0	572.0
75.49	756.0	571.9
75.5	761.0	571.8
75.51	768.0	571.7
75.52	741.0	571.6
75.53	782.0	571.6
75.54	784.0	571.5
75.55	765.0	571.4
75.56	744.0	571.3
75.57	739.0	571.2
75.58	779.0	571.1
75.59	752.0	571.1
75.6	759.0	571.0
75.61	754.0	570.9
75.62	760.0	570.8
75.63	729.0	570.7
75.64	741.0	570.7
75.65	759.0	570.6
75.66	726.0	570.5
75.67	752.0	570.4
75.68	722.0	570.3
75.69	737.0	570.2
75.7	723.0	570.2
75.71	705.0	570.1
75.72	713.0	570.0
75.73	674.0	569.9
75.74	678.0	569.8
75.75	692.0	569.8
75.76	728.0	569.7
75.77	714.0	569.6
75.78	715.0	569.5
75.79	732.0	569.4
75.8	747.0	569.3
75.81	751.0	569.3
75.82	730.0	569.2
75.83	702.0	569.1
75.84	703.0	569.0
75.85	716.0	568.9
75.86	697.0	568.9
75.87	718.0	568.8
75.88	738.0	568.7
75.89	730.0	568.6
75.9	702.0	568.5
75.91	728.0	568.5
75.92	725.0	568.4
75.93	731.0	568.3
75.94	716.0	568.2
75.95	715.0	568.1
75.96	701.0	568.1
75.97	705.0	568.0
75.98	696.0	567.9
75.99	711.0	567.8
76.0	692.0	567.7
76.01	685.0	567.7
76.02	685.0	567.6
76.03	631.0	567.5
76.04	673.0	567.4
76.05	657.0	567.3
76.06	690.0	567.3
76.07	711.0	567.2
76.08	693.0	567.1
76.09	685.0	567.0
76.1	694.0	566.9
76.11	700.0	566.9
76.12	671.0	566.8
76.13	687.0	566.7
76.14	712.0	566.6
76.15	689.0	566.5
76.16	666.0	566.5
76.17	688.0	566.4
76.18	681.0	566.3
76.19	686.0	566.2
76.2	685.0	566.1
76.21	680.0	566.1
76.22	696.0	566.0
76.23	677.0	565.9
76.24	659.0	565.8
76.25	631.0	565.8
76.26	663.0	565.7
76.27	675.0	565.6
76.28	702.0	565.5
76.29	689.0	565.4
76.3	690.0	565.4
76.31	676.0	565.3
76.32	669.0	565.2
76.33	662.0	565.1
76.34	644.0	565.1
76.35	640.0	565.0
76.36	653.0	564.9
76.37	640.0	564.8
76.38	636.0	564.7
76.39	654.0	564.7
76.4	648.0	564.6
76.41	643.0	564.5
76.42	599.0	564.4
76.43	626.0	564.4
76.44	639.0	564.3
76.45	615.0	564.2
76.46	625.0	564.1
76.47	644.0	564.1
76.48	614.0	564.0
76.49	628.0	563.9
76.5	647.0	563.8
76.51	641.0	563.7
76.52	637.0	563.7
76.53	631.0	563.6
76.54	601.0	563.5
76.55	627.0	563.4
76.56	623.0	563.4
76.57	610.0	563.3
76.58	588.0	563.2
76.59	600.0	563.1
76.6	604.0	563.1
76.61	609.0	563.0
76.62	616.0	562.9
76.63	603.0	562.8
76.64	629.0	562.8
76.65	631.0	562.7
76.66	624.0	562.6
76.67	603.0	562.5
76.68	589.0	562.5
76.69	594.0	562.4
76.7	620.0	562.3
76.71	619.0	562.2
76.72	628.0	562.2
76.73	634.0	562.1
76.74	603.0	562.0
76.75	598.0	561.9
76.76	612.0	561.9
76.77	585.0	561.8
76.78	577.0	561.7
76.79	582.0	561.6
76.8	593.0	561.6
76.81	609.0	561.5
76.82	608.0	561.4
76.83	592.0	561.3
76.84	574.0	561.3
76.85	608.0	561.2
76.86	628.0	561.1
76.87	602.0	561.0
76.88	597.0	561.0
76.89	585.0	560.9
76.9	574.0	560.8
76.91	561.0	560.7
76.92	558.0	560.7
76.93	573.0	560.6
76.94	605.0	560.5
76.95	601.0	560.5
76.96	594.0	560.4
76.97	573.0	560.3
76.98	577.0	560.2
76.99	612.0	560.2
77.0	623.0	560.1
77.01	607.0	560.0
77.02	581.0	559.9
77.03	556.0	559.9
77.04	557.0	559.8
77.05	557.0	559.7
77.06	555.0	559.7
77.07	572.0	559.6
77.08	568.0	559.5
77.09	561.0	559.4
77.1	567.0	559.4
77.11	571.0	559.3
77.12	572.0	559.2
77.13	576.0	559.1
77.14	586.0	559.1
77.15	593.0	559.0
77.16	596.0	558.9
77.17	584.0	558.9
77.18	571.0	558.8
77.19	589.0	558.7
77.2	599.0	558.7
77.21	572.0	558.6
77.22	554.0	558.5
77.23	558.0	558.4
77.24	571.0	558.4
77.25	573.0	558.3
77.26	553.0	558.2
77.27	579.0	558.2
77.28	582.0	558.1
77.29	610.0	558.0
77.3	599.0	557.9
77.31	579.0	557.9
77.32	583.0	557.8
77.33	602.0	557.7
77.34	609.0	557.7
77.35	581.0	557.6
77.36	574.0	557.5
77.37	582.0	557.5
77.38	574.0	557.4
77.39	584.0	557.3
77.4	605.0	557.2
77.41	589.0	557.2
77.42	595.0	557.1
77.43	590.0	557.0
77.44	575.0	557.0
77.45	591.0	556.9
77.46	593.0	556.8
77.47	604.0	556.8
77.48	592.0	556.7
77.49	585.0	556.6
77.5	591.0	556.6
77.51	561.0	556.5
77.52	584.0	556.4
77.53	588.0	556.4
77.54	569.0	556.3
77.55	577.0	556.2
77.56	572.0	556.2
77.57	564.0	556.1
77.58	569.0	556.0
77.59	584.0	555.9
77.6	558.0	555.9
77.61	568.0	555.8
77.62	576.0	555.7
77.63	572.0	555.7
77.64	544.0	555.6
77.65	557.0	555.5
77.66	554.0	555.5
77.67	541.0	555.4
77.68	554.0	555.3
77.69	557.0	555.3
77.7	589.0	555.2
77.71	577.0	555.1
77.72	570.0	555.1
77.73	575.0	555.0
77.74	606.0	554.9
77.75	601.0	554.9
77.76	586.0	554.8
77.77	575.0	554.7
77.78	566.0	554.7
77.79	575.0	554.6
77.8	571.0	554.5
77.81	597.0	554.5
77.82	588.0	554.4
77.83	582.0	554.4
77.84	583.0	554.3
77.85	590.0	554.2
77.86	595.0	554.2
77.87	586.0	554.1
77.88	588.0	554.0
77.89	553.0	554.0
77.9	566.0	553.9
77.91	562.0	553.8
77.92	569.0	553.8
77.93	563.0	553.7
77.94	577.0	553.6
77.95	563.0	553.6
77.96	575.0	553.5
77.97	572.0	553.4
77.98	582.0	553.4
77.99	592.0	553.3
78.0	568.0	553.3
78.01	573.0	553.2
78.02	578.0	553.1
78.03	583.0	553.1
78.04	581.0	553.0
78.05	581.0	552.9
78.06	575.0	552.9
78.07	593.0	552.8
78.08	602.0	552.8
78.09	598.0	552.7
78.1	566.0	552.6
78.11	567.0	552.6
78.12	563.0	552.5
78.13	532.0	552.4
78.14	556.0	552.4
78.15	581.0	552.3
78.16	575.0	552.3
78.17	578.0	552.2
78.18	587.0	552.1
78.19	580.0	552.1
78.2	568.0	552.0
78.21	554.0	551.9
78.22	569.0	551.9
78.23	583.0	551.8
78.24	584.0	551.8
78.25	568.0	551.7
78.26	555.0	551.6
78.27	570.0	551.6
78.28	535.0	551.5
78.29	558.0	551.5
78.3	592.0	551.4
78.31	557.0	551.3
78.32	569.0	551.3
78.33	578.0	551.2
78.34	575.0	551.2
78.35	577.0	551.1
78.36	577.0	551.0
78.37	552.0	551.0
78.38	590.0	550.9
78.39	577.0	550.9
78.4	560.0	550.8
78.41	574.0	550.7
78.42	580.0	550.7
78.43	600.0	550.6
78.44	592.0	550.6
78.45	572.0	550.5
78.46	556.0	550.4
78.47	557.0	550.4
78.48	583.0	550.3
78.49	608.0	550.3
78.5	616.0	550.2
78.51	580.0	550.2
78.52	569.0	550.1
78.53	572.0	550.0
78.54	582.0	550.0
78.55	560.0	549.9
78.56	569.0	549.9
78.57	596.0	549.8
78.58	617.0	549.7
78.59	587.0	549.7
78.6	568.0	549.6
78.61	564.0	549.6
78.62	575.0	549.5
78.63	601.0	549.5
78.64	581.0	549.4
78.65	584.0	549.3
78.66	583.0	549.3
78.67	590.0	549.2
78.68	574.0	549.2
78.69	557.0	549.1
78.7	602.0	549.1
78.71	613.0	549.0
78.72	591.0	549.0
78.73	593.0	548.9
78.74	613.0	548.8
78.75	582.0	548.8
78.76	584.0	548.7
78.77	591.0	548.7
78.78	576.0	548.6
78.79	577.0	548.6
78.8	569.0	548.5
78.81	583.0	548.5
78.82	578.0	548.4
78.83	561.0	548.3
78.84	561.0	548.3
78.85	588.0	548.2
78.86	602.0	548.2
78.87	586.0	548.1
78.88	579.0	548.1
78.89	621.0	548.0
78.9	630.0	548.0
78.91	613.0	547.9
78.92	601.0	547.9
78.93	577.0	547.8
78.94	534.0	547.8
78.95	547.0	547.7
78.96	598.0	547.6
78.97	572.0	547.6
78.98	563.0	547.5
78.99	530.0	547.5
79.0	544.0	547.4
79.01	586.0	547.4
79.02	579.0	547.3
79.03	542.0	547.3
79.04	557.0	547.2
79.05	557.0	547.2
79.06	613.0	547.1
79.07	614.0	547.1
79.08	601.0	547.0
79.09	592.0	547.0
79.1	577.0	546.9
79.11	572.0	546.9
79.12	572.0	546.8
79.13	566.0	546.8
79.14	574.0	546.7
79.15	597.0	546.7
79.16	565.0	546.6
79.17	576.0	546.6
79.18	570.0	546.5
79.19	569.0	546.5
79.2	585.0	546.4
79.21	604.0	546.4
79.22	605.0	546.3
79.23	577.0	546.3
79.24	571.0	546.2
79.25	569.0	546.2
79.26	594.0	546.1
79.27	589.0	546.1
79.28	582.0	546.0
79.29	586.0	546.0
79.3	582.0	545.9
79.31	589.0	545.9
79.32	573.0	545.8
79.33	577.0	545.8
79.34	587.0	545.7
79.35	588.0	545.7
79.36	591.0	545.6
79.37	581.0	545.6
79.38	566.0	545.5
79.39	544.0	545.5
79.4	553.0	545.4
79.41	588.0	545.4
79.42	592.0	545.3
79.43	578.0	545.3
79.44	592.0	545.2
79.45	594.0	545.2
79.46	595.0	545.1
79.47	595.0	545.1
79.48	583.0	545.1
79.49	600.0	545.0
79.5	583.0	545.0
79.51	595.0	544.9
79.52	586.0	544.9
79.53	562.0	544.8
79.54	565.0	544.8
79.55	574.0	544.7
79.56	562.0	544.7
79.57	598.0	544.6
79.58	604.0	544.6
79.59	621.0	544.5
79.6	592.0	544.5
79.61	610.0	544.5
79.62	603.0	544.4
79.63	614.0	544.4
79.64	623.0	544.3
79.65	618.0	544.3
79.66	632.0	544.2
79.67	613.0	544.2
79.68	606.0	544.1
79.69	608.0	544.1
79.7	625.0	544.0
79.71	613.0	544.0
79.72	628.0	544.0
79.73	619.0	543.9
79.74	642.0	543.9
79.75	646.0	543.8
79.76	618.0	543.8
79.77	606.0	543.7
79.78	619.0	543.7
79.79	636.0	543.7
79.8	631.0	543.6
79.81	635.0	543.6
79.82	653.0	543.5
79.83	661.0	543.5
79.84	660.0	543.4
79.85	699.0	543.4
79.86	667.0	543.4
79.87	649.0	543.3
79.88	645.0	543.3
79.89	668.0	543.2
79.9	656.0	543.2
79.91	670.0	543.1
79.92	647.0	543.1
79.93	672.0	543.1
79.94	670.0	543.0
79.95	671.0	543.0
79.96	705.0	542.9
79.97	682.0	542.9
79.98	665.0	542.8
79.99	717.0	542.8
80.0	691.0	542.8
80.01	695.0	542.7
80.02	716.0	542.7
80.03	726.0	542.6
80.04	707.0	542.6
80.05	705.0	542.6
80.06	702.0	542.5
80.07	729.0	542.5
80.08	738.0	542.4
80.09	749.0	542.4
80.1	768.0	542.4
80.11	781.0	542.3
80.12	771.0	542.3
80.13	778.0	542.2
80.14	793.0	542.2
80.15	787.0	542.2
80.16	800.0	542.1
80.17	806.0	542.1
80.18	780.0	542.0
80.19	749.0	542.0
80.2	782.0	542.0
80.21	798.0	541.9
80.22	810.0	541.9
80.23	801.0	541.9
80.24	774.0	541.8
80.25	780.0	541.8
80.26	811.0	541.7
80.27	813.0	541.7
80.28	795.0	541.7
80.29	762.0	541.6
80.3	770.0	541.6
80.31	756.0	541.6
80.32	758.0	541.5
80.33	737.0	541.5
80.34	715.0	541.4
80.35	735.0	541.4
80.36	768.0	541.4
80.37	757.0	541.3
80.38	758.0	541.3
80.39	759.0	541.3
80.4	762.0	541.2
80.41	761.0	541.2
80.42	739.0	541.1
80.43	738.0	541.1
80.44	690.0	541.1
80.45	702.0	541.0
80.46	705.0	541.0
80.47	708.0	541.0
80.48	721.0	540.9
80.49	692.0	540.9
80.5	682.0	540.9
80.51	720.0	540.8
80.52	679.0	540.8
80.53	687.0	540.8
80.54	687.0	540.7
80.55	680.0	540.7
80.56	647.0	540.6
80.57	639.0	540.6
80.58	663.0	540.6
80.59	672.0	540.5
80.6	655.0	540.5
80.61	651.0	540.5
80.62	662.0	540.4
80.63	673.0	540.4
80.64	664.0	540.4
80.65	648.0	540.3
80.66	664.0	540.3
80.67	659.0	540.3
80.68	630.0	540.2
80.69	657.0	540.2
80.7	674.0	540.2
80.71	620.0	540.1
80.72	611.0	540.1
80.73	592.0	540.1
80.74	622.0	540.0
80.75	612.0	540.0
80.76	623.0	540.0
80.77	600.0	539.9
80.78	573.0	539.9
80.79	586.0	539.9
80.8	609.0	539.8
80.81	620.0	539.8
80.82	603.0	539.8
80.83	600.0	539.7
80.84	604.0	539.7
80.85	615.0	539.7
80.86	596.0	539.7
80.87	584.0	539.6
80.88	592.0	539.6
80.89	615.0	539.6
80.9	644.0	539.5
80.91	588.0	539.5
80.92	622.0	539.5
80.93	633.0	539.4
80.94	609.0	539.4
80.95	607.0	539.4
80.96	588.0	539.3
80.97	602.0	539.3
80.98	604.0	539.3
80.99	608.0	539.3
81.0	641.0	539.2
81.01	611.0	539.2
81.02	592.0	539.2
81.03	603.0	539.1
81.04	590.0	539.1
81.05	582.0	539.1
81.06	579.0	539.0
81.07	586.0	539.0
81.08	613.0	539.0
81.09	613.0	539.0
81.1	596.0	538.9
81.11	627.0	538.9
81.12	598.0	538.9
81.13	590.0	538.8
81.14	595.0	538.8
81.15	609.0	538.8
81.16	631.0	538.8
81.17	597.0	538.7
81.18	578.0	538.7
81.19	574.0	538.7
81.2	592.0	538.6
81.21	627.0	538.6
81.22	607.0	538.6
81.23	585.0	538.6
81.24	603.0	538.5
81.25	603.0	538.5
81.26	599.0	538.5
81.27	614.0	538.4
81.28	582.0	538.4
81.29	588.0	538.4
81.3	584.0	538.4
81.31	605.0	538.3
81.32	600.0	538.3
81.33	606.0	538.3
81.34	605.0	538.3
81.35	590.0	538.2
81.36	602.0	538.2
81.37	596.0	538.2
81.38	617.0	538.2
81.39	589.0	538.1
81.4	619.0	538.1
81.41	622.0	538.1
81.42	638.0	538.0
81.43	647.0	538.0
81.44	610.0	538.0
81.45	595.0	538.0
81.46	578.0	537.9
81.47	592.0	537.9
81.48	609.0	537.9
81.49	622.0	537.9
81.5	623.0	537.8
81.51	632.0	537.8
81.52	643.0	537.8
81.53	664.0	537.8
81.54	625.0	537.7
81.55	620.0	537.7
81.56	631.0	537.7
81.57	625.0	537.7
81.58	628.0	537.6
81.59	625.0	537.6
81.6	649.0	537.6
81.61	669.0	537.6
81.62	651.0	537.6
81.63	647.0	537.5
81.64	661.0	537.5
81.65	661.0	537.5
81.66	662.0	537.5
81.67	649.0	537.4
81.68	650.0	537.4
81.69	686.0	537.4
81.7	685.0	537.4
81.71	672.0	537.3
81.72	678.0	537.3
81.73	693.0	537.3
81.74	674.0	537.3
81.75	698.0	537.3
81.76	718.0	537.2
81.77	713.0	537.2
81.78	740.0	537.2
81.79	723.0	537.2
81.8	736.0	537.1
81.81	713.0	537.1
81.82	709.0	537.1
81.83	733.0	537.1
81.84	717.0	537.1
81.85	696.0	537.0
81.86	703.0	537.0
81.87	713.0	537.0
81.88	675.0	537.0
81.89	673.0	537.0
81.9	684.0	536.9
81.91	694.0	536.9
81.92	687.0	536.9
81.93	706.0	536.9
81.94	684.0	536.8
81.95	680.0	536.8
81.96	668.0	536.8
81.97	692.0	536.8
81.98	681.0	536.8
81.99	703.0	536.7
82.0	693.0	536.7
82.01	674.0	536.7
82.02	669.0	536.7
82.03	668.0	536.7
82.04	709.0	536.6
82.05	696.0	536.6
82.06	667.0	536.6
82.07	656.0	536.6
82.08	674.0	536.6
82.09	692.0	536.6
82.1	713.0	536.5
82.11	714.0	536.5
82.12	698.0	536.5
82.13	675.0	536.5
82.14	627.0	536.5
82.15	626.0	536.4
82.16	670.0	536.4
82.17	661.0	536.4
82.18	673.0	536.4
82.19	671.0	536.4
82.2	680.0	536.3
82.21	665.0	536.3
82.22	652.0	536.3
82.23	639.0	536.3
82.24	661.0	536.3
82.25	660.0	536.3
82.26	653.0	536.2
82.27	668.0	536.2
82.28	666.0	536.2
82.29	655.0	536.2
82.3	652.0	536.2
82.31	662.0	536.2
82.32	655.0	536.1
82.33	661.0	536.1
82.34	666.0	536.1
82.35	695.0	536.1
82.36	702.0	536.1
82.37	678.0	536.1
82.38	656.0	536.0
82.39	644.0	536.0
82.4	653.0	536.0
82.41	662.0	536.0
82.42	694.0	536.0
82.43	690.0	536.0
82.44	698.0	535.9
82.45	681.0	535.9
82.46	673.0	535.9
82.47	649.0	535.9
82.48	649.0	535.9
82.49	660.0	535.9
82.5	677.0	535.9
82.51	700.0	535.8
82.52	702.0	535.8
82.53	684.0	535.8
82.54	679.0	535.8
82.55	686.0	535.8
82.56	701.0	535.8
82.57	687.0	535.7
82.58	668.0	535.7
82.59	677.0	535.7
82.6	661.0	535.7
82.61	654.0	535.7
82.62	700.0	535.7
82.63	691.0	535.7
82.64	676.0	535.6
82.65	667.0	535.6
82.66	676.0	535.6
82.67	677.0	535.6
82.68	696.0	535.6
82.69	702.0	535.6
82.7	714.0	535.6
82.71	702.0	535.6
82.72	711.0	535.5
82.73	713.0	535.5
82.74	706.0	535.5
82.75	701.0	535.5
82.76	682.0	535.5
82.77	707.0	535.5
82.78	738.0	535.5
82.79	726.0	535.5
82.8	701.0	535.4
82.81	703.0	535.4
82.82	707.0	535.4
82.83	708.0	535.4
82.84	730.0	535.4
82.85	718.0	535.4
82.86	705.0	535.4
82.87	694.0	535.4
82.88	715.0	535.3
82.89	718.0	535.3
82.9	717.0	535.3
82.91	722.0	535.3
82.92	707.0	535.3
82.93	689.0	535.3
82.94	702.0	535.3
82.95	696.0	535.3
82.96	695.0	535.3
82.97	730.0	535.2
82.98	736.0	535.2
82.99	715.0	535.2
83.0	702.0	535.2
83.01	716.0	535.2
83.02	750.0	535.2
83.03	782.0	535.2
83.04	750.0	535.2
83.05	713.0	535.2
83.06	716.0	535.2
83.07	726.0	535.1
83.08	741.0	535.1
83.09	722.0	535.1
83.1	736.0	535.1
83.11	754.0	535.1
83.12	712.0	535.1
83.13	719.0	535.1
83.14	727.0	535.1
83.15	746.0	535.1
83.16	741.0	535.1
83.17	728.0	535.0
83.18	746.0	535.0
83.19	736.0	535.0
83.2	736.0	535.0
83.21	757.0	535.0
83.22	750.0	535.0
83.23	777.0	535.0
83.24	784.0	535.0
83.25	758.0	535.0
83.26	739.0	535.0
83.27	747.0	535.0
83.28	775.0	535.0
83.29	742.0	534.9
83.3	731.0	534.9
83.31	773.0	534.9
83.32	761.0	534.9
83.33	743.0	534.9
83.34	737.0	534.9
83.35	771.0	534.9
83.36	776.0	534.9
83.37	763.0	534.9
83.38	787.0	534.9
83.39	766.0	534.9
83.4	755.0	534.9
83.41	766.0	534.9
83.42	760.0	534.9
83.43	757.0	534.8
83.44	739.0	534.8
83.45	722.0	534.8
83.46	720.0	534.8
83.47	739.0	534.8
83.48	740.0	534.8
83.49	702.0	534.8
83.5	685.0	534.8
83.51	695.0	534.8
83.52	682.0	534.8
83.53	683.0	534.8
83.54	687.0	534.8
83.55	717.0	534.8
83.56	709.0	534.8
83.57	709.0	534.8
83.58	713.0	534.8
83.59	702.0	534.8
83.6	688.0	534.7
83.61	667.0	534.7
83.62	681.0	534.7
83.63	689.0	534.7
83.64	706.0	534.7
83.65	689.0	534.7
83.66	663.0	534.7
83.67	683.0	534.7
83.68	645.0	534.7
83.69	653.0	534.7
83.7	647.0	534.7
83.71	660.0	534.7
83.72	656.0	534.7
83.73	627.0	534.7
83.74	618.0	534.7
83.75	621.0	534.7
83.76	613.0	534.7
83.77	614.0	534.7
83.78	639.0	534.7
83.79	624.0	534.7
83.8	599.0	534.7
83.81	608.0	534.7
83.82	624.0	534.7
83.83	597.0	534.7
83.84	605.0	534.7
83.85	616.0	534.6
83.86	620.0	534.6
83.87	619.0	534.6
83.88	618.0	534.6
83.89	599.0	534.6
83.9	599.0	534.6
83.91	610.0	534.6
83.92	590.0	534.6
83.93	574.0	534.6
83.94	604.0	534.6
83.95	615.0	534.6
83.96	611.0	534.6
83.97	629.0	534.6
83.98	623.0	534.6
83.99	586.0	534.6
84.0	592.0	534.6
84.01	598.0	534.6
84.02	592.0	534.6
84.03	601.0	534.6
84.04	601.0	534.6
84.05	578.0	534.6
84.06	565.0	534.6
84.07	583.0	534.6
84.08	611.0	534.6
84.09	612.0	534.6
84.1	605.0	534.6
84.11	582.0	534.6
84.12	589.0	534.6
84.13	608.0	534.6
84.14	584.0	534.6
84.15	581.0	534.6
84.16	601.0	534.6
84.17	593.0	534.6
84.18	580.0	534.6
84.19	572.0	534.6
84.2	583.0	534.6
84.21	583.0	534.6
84.22	574.0	534.6
84.23	584.0	534.6
84.24	576.0	534.6
84.25	556.0	534.6
84.26	557.0	534.6
84.27	588.0	534.6
84.28	578.0	534.6
84.29	574.0	534.6
84.3	581.0	534.6
84.31	577.0	534.6
84.32	561.0	534.6
84.33	594.0	534.6
84.34	608.0	534.6
84.35	591.0	534.6
84.36	586.0	534.6
84.37	581.0	534.6
84.38	571.0	534.6
84.39	553.0	534.6
84.4	553.0	534.6
84.41	564.0	534.6
84.42	598.0	534.6
84.43	593.0	534.6
84.44	587.0	534.6
84.45	580.0	534.6
84.46	573.0	534.6
84.47	559.0	534.6
84.48	557.0	534.6
84.49	573.0	534.6
84.5	571.0	534.6
84.51	591.0	534.6
84.52	602.0	534.6
84.53	588.0	534.6
84.54	577.0	534.6
84.55	604.0	534.6
84.56	600.0	534.6
84.57	606.0	534.7
84.58	595.0	534.7
84.59	599.0	534.7
84.6	604.0	534.7
84.61	582.0	534.7
84.62	587.0	534.7
84.63	605.0	534.7
84.64	595.0	534.7
84.65	594.0	534.7
84.66	590.0	534.7
84.67	597.0	534.7
84.68	597.0	534.7
84.69	591.0	534.7
84.7	592.0	534.7
84.71	584.0	534.7
84.72	558.0	534.7
84.73	585.0	534.7
84.74	626.0	534.7
84.75	641.0	534.7
84.76	616.0	534.7
84.77	642.0	534.7
84.78	621.0	534.7
84.79	602.0	534.7
84.8	615.0	534.7
84.81	647.0	534.7
84.82	641.0	534.8
84.83	654.0	534.8
84.84	660.0	534.8
84.85	650.0	534.8
84.86	628.0	534.8
84.87	623.0	534.8
84.88	646.0	534.8
84.89	663.0	534.8
84.9	638.0	534.8
84.91	627.0	534.8
84.92	630.0	534.8
84.93	646.0	534.8
84.94	642.0	534.8
84.95	643.0	534.8
84.96	638.0	534.8
84.97	642.0	534.8
84.98	633.0	534.8
84.99	610.0	534.8
85.0	599.0	534.9
85.01	597.0	534.9
85.02	622.0	534.9
85.03	629.0	534.9
85.04	610.0	534.9
85.05	615.0	534.9
85.06	636.0	534.9
85.07	609.0	534.9
85.08	604.0	534.9
85.09	586.0	534.9
85.1	571.0	534.9
85.11	567.0	534.9
85.12	589.0	534.9
85.13	617.0	534.9
85.14	615.0	535.0
85.15	623.0	535.0
85.16	641.0	535.0
85.17	604.0	535.0
85.18	592.0	535.0
85.19	610.0	535.0
85.2	603.0	535.0
85.21	596.0	535.0
85.22	612.0	535.0
85.23	595.0	535.0
85.24	602.0	535.0
85.25	595.0	535.0
85.26	566.0	535.0
85.27	590.0	535.1
85.28	606.0	535.1
85.29	597.0	535.1
85.3	578.0	535.1
85.31	586.0	535.1
85.32	591.0	535.1
85.33	573.0	535.1
85.34	550.0	535.1
85.35	596.0	535.1
85.36	615.0	535.1
85.37	582.0	535.1
85.38	587.0	535.2
85.39	568.0	535.2
85.4	558.0	535.2
85.41	544.0	535.2
85.42	553.0	535.2
85.43	566.0	535.2
85.44	557.0	535.2
85.45	557.0	535.2
85.46	587.0	535.2
85.47	582.0	535.2
85.48	558.0	535.2
85.49	565.0	535.3
85.5	583.0	535.3
85.51	571.0	535.3
85.52	550.0	535.3
85.53	537.0	535.3
85.54	565.0	535.3
85.55	564.0	535.3
85.56	573.0	535.3
85.57	558.0	535.3
85.58	555.0	535.4
85.59	572.0	535.4
85.6	595.0	535.4
85.61	560.0	535.4
85.62	572.0	535.4
85.63	581.0	535.4
85.64	555.0	535.4
85.65	547.0	535.4
85.66	538.0	535.4
85.67	545.0	535.5
85.68	553.0	535.5
85.69	569.0	535.5
85.7	574.0	535.5
85.71	601.0	535.5
85.72	579.0	535.5
85.73	555.0	535.5
85.74	562.0	535.5
85.75	556.0	535.5
85.76	562.0	535.6
85.77	548.0	535.6
85.78	536.0	535.6
85.79	544.0	535.6
85.8	537.0	535.6
85.81	553.0	535.6
85.82	552.0	535.6
85.83	571.0	535.6
85.84	597.0	535.7
85.85	603.0	535.7
85.86	569.0	535.7
85.87	554.0	535.7
85.88	563.0	535.7
85.89	575.0	535.7
85.9	566.0	535.7
85.91	568.0	535.7
85.92	579.0	535.8
85.93	572.0	535.8
85.94	565.0	535.8
85.95	579.0	535.8
85.96	583.0	535.8
85.97	614.0	535.8
85.98	584.0	535.8
85.99	547.0	535.9
86.0	557.0	535.9
86.01	573.0	535.9
86.02	579.0	535.9
86.03	572.0	535.9
86.04	572.0	535.9
86.05	585.0	535.9
86.06	603.0	536.0
86.07	602.0	536.0
86.08	592.0	536.0
86.09	587.0	536.0
86.1	572.0	536.0
86.11	576.0	536.0
86.12	593.0	536.0
86.13	615.0	536.1
86.14	621.0	536.1
86.15	628.0	536.1
86.16	587.0	536.1
86.17	565.0	536.1
86.18	571.0	536.1
86.19	581.0	536.1
86.2	577.0	536.2
86.21	567.0	536.2
86.22	590.0	536.2
86.23	602.0	536.2
86.24	592.0	536.2
86.25	586.0	536.2
86.26	603.0	536.2
86.27	614.0	536.3
86.28	602.0	536.3
86.29	610.0	536.3
86.3	612.0	536.3
86.31	615.0	536.3
86.32	626.0	536.3
86.33	618.0	536.4
86.34	615.0	536.4
86.35	609.0	536.4
86.36	631.0	536.4
86.37	649.0	536.4
86.38	664.0	536.4
86.39	657.0	536.5
86.4	649.0	536.5
86.41	644.0	536.5
86.42	617.0	536.5
86.43	626.0	536.5
86.44	635.0	536.5
86.45	635.0	536.6
86.46	608.0	536.6
86.47	620.0	536.6
86.48	622.0	536.6
86.49	598.0	536.6
86.5	611.0	536.6
86.51	629.0	536.7
86.52	610.0	536.7
86.53	605.0	536.7
86.54	620.0	536.7
86.55	634.0	536.7
86.56	605.0	536.7
86.57	609.0	536.8
86.58	588.0	536.8
86.59	587.0	536.8
86.6	607.0	536.8
86.61	639.0	536.8
86.62	644.0	536.8
86.63	615.0	536.9
86.64	602.0	536.9
86.65	598.0	536.9
86.66	649.0	536.9
86.67	638.0	536.9
86.68	625.0	537.0
86.69	614.0	537.0
86.7	598.0	537.0
86.71	581.0	537.0
86.72	594.0	537.0
86.73	604.0	537.0
86.74	575.0	537.1
86.75	565.0	537.1
86.76	575.0	537.1
86.77	589.0	537.1
86.78	612.0	537.1
86.79	605.0	537.2
86.8	598.0	537.2
86.81	618.0	537.2
86.82	599.0	537.2
86.83	587.0	537.2
86.84	599.0	537.2
86.85	597.0	537.3
86.86	575.0	537.3
86.87	584.0	537.3
86.88	554.0	537.3
86.89	554.0	537.3
86.9	576.0	537.4
86.91	564.0	537.4
86.92	569.0	537.4
86.93	568.0	537.4
86.94	557.0	537.4
86.95	565.0	537.5
86.96	590.0	537.5
86.97	587.0	537.5
86.98	567.0	537.5
86.99	571.0	537.5
87.0	562.0	537.6
87.01	564.0	537.6
87.02	592.0	537.6
87.03	586.0	537.6
87.04	574.0	537.6
87.05	569.0	537.7
87.06	575.0	537.7
87.07	556.0	537.7
87.08	555.0	537.7
87.09	570.0	537.7
87.1	568.0	537.8
87.11	561.0	537.8
87.12	560.0	537.8
87.13	570.0	537.8
87.14	557.0	537.8
87.15	551.0	537.9
87.16	566.0	537.9
87.17	566.0	537.9
87.18	571.0	537.9
87.19	573.0	537.9
87.2	587.0	538.0
87.21	596.0	538.0
87.22	572.0	538.0
87.23	559.0	538.0
87.24	576.0	538.0
87.25	578.0	538.1
87.26	575.0	538.1
87.27	575.0	538.1
87.28	558.0	538.1
87.29	559.0	538.2
87.3	568.0	538.2
87.31	559.0	538.2
87.32	574.0	538.2
87.33	569.0	538.2
87.34	563.0	538.3
87.35	548.0	538.3
87.36	545.0	538.3
87.37	565.0	538.3
87.38	578.0	538.3
87.39	562.0	538.4
87.4	559.0	538.4
87.41	559.0	538.4
87.42	567.0	538.4
87.43	559.0	538.5
87.44	538.0	538.5
87.45	537.0	538.5
87.46	556.0	538.5
87.47	593.0	538.5
87.48	587.0	538.6
87.49	562.0	538.6
87.5	556.0	538.6
87.51	564.0	538.6
87.52	548.0	538.7
87.53	550.0	538.7
87.54	560.0	538.7
87.55	577.0	538.7
87.56	570.0	538.7
87.57	567.0	538.8
87.58	577.0	538.8
87.59	571.0	538.8
87.6	556.0	538.8
87.61	559.0	538.9
87.62	584.0	538.9
87.63	604.0	538.9
87.64	598.0	538.9
87.65	566.0	538.9
87.66	549.0	539.0
87.67	552.0	539.0
87.68	557.0	539.0
87.69	576.0	539.0
87.7	568.0	539.1
87.71	579.0	539.1
87.72	582.0	539.1
87.73	564.0	539.1
87.74	560.0	539.2
87.75	576.0	539.2
87.76	581.0	539.2
87.77	596.0	539.2
87.78	594.0	539.2
87.79	574.0	539.3
87.8	580.0	539.3
87.81	596.0	539.3
87.82	591.0	539.3
87.83	577.0	539.4
87.84	568.0	539.4
87.85	586.0	539.4
87.86	604.0	539.4
87.87	607.0	539.5
87.88	596.0	539.5
87.89	583.0	539.5
87.9	591.0	539.5
87.91	582.0	539.6
87.92	582.0	539.6
87.93	601.0	539.6
87.94	584.0	539.6
87.95	572.0	539.7
87.96	567.0	539.7
87.97	588.0	539.7
87.98	621.0	539.7
87.99	614.0	539.8
88.0	612.0	539.8
88.01	622.0	539.8
88.02	613.0	539.8
88.03	613.0	539.8
88.04	614.0	539.9
88.05	588.0	539.9
88.06	579.0	539.9
88.07	583.0	539.9
88.08	596.0	540.0
88.09	639.0	540.0
88.1	628.0	540.0
88.11	594.0	540.0
88.12	606.0	540.1
88.13	612.0	540.1
88.14	573.0	540.1
88.15	559.0	540.1
88.16	573.0	540.2
88.17	582.0	540.2
88.18	597.0	540.2
88.19	599.0	540.2
88.2	589.0	540.3
88.21	593.0	540.3
88.22	602.0	540.3
88.23	597.0	540.3
88.24	586.0	540.4
88.25	581.0	540.4
88.26	578.0	540.4
88.27	577.0	540.4
88.28	568.0	540.5
88.29	584.0	540.5
88.3	603.0	540.5
88.31	585.0	540.5
88.32	581.0	540.6
88.33	555.0	540.6
88.34	560.0	540.6
88.35	577.0	540.7
88.36	580.0	540.7
88.37	575.0	540.7
88.38	568.0	540.7
88.39	575.0	540.8
88.4	579.0	540.8
88.41	578.0	540.8
88.42	562.0	540.8
88.43	544.0	540.9
88.44	556.0	540.9
88.45	575.0	540.9
88.46	579.0	540.9
88.47	586.0	541.0
88.48	567.0	541.0
88.49	552.0	541.0
88.5	561.0	541.0
88.51	585.0	541.1
88.52	598.0	541.1
88.53	596.0	541.1
88.54	576.0	541.1
88.55	570.0	541.2
88.56	571.0	541.2
88.57	562.0	541.2
88.58	567.0	541.2
88.59	565.0	541.3
88.6	565.0	541.3
88.61	562.0	541.3
88.62	582.0	541.4
88.63	595.0	541.4
88.64	581.0	541.4
88.65	570.0	541.4
88.66	567.0	541.5
88.67	571.0	541.5
88.68	571.0	541.5
88.69	562.0	541.5
88.7	570.0	541.6
88.71	586.0	541.6
88.72	575.0	541.6
88.73	554.0	541.6
88.74	566.0	541.7
88.75	560.0	541.7
88.76	554.0	541.7
88.77	575.0	541.8
88.78	585.0	541.8
88.79	569.0	541.8
88.8	572.0	541.8
88.81	584.0	541.9
88.82	581.0	541.9
88.83	577.0	541.9
88.84	574.0	541.9
88.85	572.0	542.0
88.86	572.0	542.0
88.87	580.0	542.0
88.88	561.0	542.0
88.89	547.0	542.1
88.9	562.0	542.1
88.91	577.0	542.1
88.92	571.0	542.2
88.93	575.0	542.2
88.94	584.0	542.2
88.95	581.0	542.2
88.96	575.0	542.3
88.97	583.0	542.3
88.98	573.0	542.3
88.99	568.0	542.3
89.0	573.0	542.4
89.01	568.0	542.4
89.02	567.0	542.4
89.03	583.0	542.5
89.04	580.0	542.5
89.05	577.0	542.5
89.06	585.0	542.5
89.07	587.0	542.6
89.08	590.0	542.6
89.09	592.0	542.6
89.1	579.0	542.7
89.11	576.0	542.7
89.12	578.0	542.7
89.13	590.0	542.7
89.14	609.0	542.8
89.15	593.0	542.8
89.16	576.0	542.8
89.17	578.0	542.8
89.18	580.0	542.9
89.19	580.0	542.9
89.2	582.0	542.9
89.21	588.0	543.0
89.22	605.0	543.0
89.23	617.0	543.0
89.24	628.0	543.0
89.25	628.0	543.1
89.26	617.0	543.1
89.27	600.0	543.1
89.28	599.0	543.2
89.29	597.0	543.2
89.3	596.0	543.2
89.31	611.0	543.2
89.32	620.0	543.3
89.33	612.0	543.3
89.34	617.0	543.3
89.35	638.0	543.3
89.36	625.0	543.4
89.37	600.0	543.4
89.38	602.0	543.4
89.39	606.0	543.5
89.4	617.0	543.5
89.41	616.0	543.5
89.42	613.0	543.5
89.43	618.0	543.6
89.44	632.0	543.6
89.45	642.0	543.6
89.46	645.0	543.7
89.47	639.0	543.7
89.48	640.0	543.7
89.49	631.0	543.7
89.5	618.0	543.8
89.51	641.0	543.8
89.52	654.0	543.8
89.53	638.0	543.9
89.54	620.0	543.9
89.55	623.0	543.9
89.56	639.0	543.9
89.57	647.0	544.0
89.58	629.0	544.0
89.59	598.0	544.0
89.6	619.0	544.1
89.61	632.0	544.1
89.62	615.0	544.1
89.63	604.0	544.1
89.64	619.0	544.2
89.65	627.0	544.2
89.66	643.0	544.2
89.67	644.0	544.3
89.68	627.0	544.3
89.69	615.0	544.3
89.7	604.0	544.3
89.71	612.0	544.4
89.72	639.0	544.4
89.73	638.0	544.4
89.74	604.0	544.5
89.75	587.0	544.5
89.76	592.0	544.5
89.77	606.0	544.5
89.78	608.0	544.6
89.79	618.0	544.6
89.8	623.0	544.6
89.81	587.0	544.7
89.82	575.0	544.7
89.83	588.0	544.7
89.84	593.0	544.7
89.85	588.0	544.8
89.86	603.0	544.8
89.87	620.0	544.8
89.88	603.0	544.9
89.89	597.0	544.9
89.9	596.0	544.9
89.91	577.0	544.9
89.92	566.0	545.0
89.93	574.0	545.0
89.94	585.0	545.0
89.95	593.0	545.1
89.96	598.0	545.1
89.97	571.0	545.1
89.98	562.0	545.1
89.99	582.0	545.2
90.0	587.0	545.2
90.01	591.0	545.2
90.02	613.0	545.3
90.03	627.0	545.3
90.04	619.0	545.3
90.05	577.0	545.3
90.06	576.0	545.4
90.07	609.0	545.4
90.08	604.0	545.4
90.09	596.0	545.5
90.1	600.0	545.5
90.11	575.0	545.5
90.12	566.0	545.5
90.13	575.0	545.6
90.14	572.0	545.6
90.15	574.0	545.6
90.16	593.0	545.7
90.17	606.0	545.7
90.18	595.0	545.7
90.19	579.0	545.8
90.2	570.0	545.8
90.21	570.0	545.8
90.22	576.0	545.8
90.23	579.0	545.9
90.24	565.0	545.9
90.25	581.0	545.9
90.26	592.0	546.0
90.27	579.0	546.0
90.28	581.0	546.0
90.29	582.0	546.0
90.3	581.0	546.1
90.31	575.0	546.1
90.32	569.0	546.1
90.33	583.0	546.2
90.34	583.0	546.2
90.35	583.0	546.2
90.36	608.0	546.2
90.37	615.0	546.3
90.38	606.0	546.3
90.39	611.0	546.3
90.4	594.0	546.4
90.41	572.0	546.4
90.42	598.0	546.4
90.43	618.0	546.4
90.44	632.0	546.5
90.45	640.0	546.5
90.46	620.0	546.5
90.47	625.0	546.6
90.48	623.0	546.6
90.49	602.0	546.6
90.5	597.0	546.7
90.51	593.0	546.7
90.52	587.0	546.7
90.53	584.0	546.7
90.54	592.0	546.8
90.55	615.0	546.8
90.56	622.0	546.8
90.57	607.0	546.9
90.58	609.0	546.9
90.59	626.0	546.9
90.6	636.0	546.9
90.61	627.0	547.0
90.62	617.0	547.0
90.63	616.0	547.0
90.64	614.0	547.1
90.65	601.0	547.1
90.66	607.0	547.1
90.67	614.0	547.1
90.68	621.0	547.2
90.69	625.0	547.2
90.7	633.0	547.2
90.71	629.0	547.3
90.72	623.0	547.3
90.73	630.0	547.3
90.74	630.0	547.4
90.75	624.0	547.4
90.76	630.0	547.4
90.77	637.0	547.4
90.78	630.0	547.5
90.79	641.0	547.5
90.8	648.0	547.5
90.81	647.0	547.6
90.82	658.0	547.6
90.83	672.0	547.6
90.84	689.0	547.6
90.85	686.0	547.7
90.86	673.0	547.7
90.87	674.0	547.7
90.88	685.0	547.8
90.89	692.0	547.8
90.9	701.0	547.8
90.91	687.0	547.8
90.92	670.0	547.9
90.93	685.0	547.9
90.94	697.0	547.9
90.95	674.0	548.0
90.96	672.0	548.0
90.97	711.0	548.0
90.98	714.0	548.0
90.99	702.0	548.1
91.0	713.0	548.1
91.01	717.0	548.1
91.02	713.0	548.2
91.03	714.0	548.2
91.04	717.0	548.2
91.05	714.0	548.2
91.06	717.0	548.3
91.07	725.0	548.3
91.08	717.0	548.3
91.09	718.0	548.4
91.1	721.0	548.4
91.11	703.0	548.4
91.12	717.0	548.4
91.13	727.0	548.5
91.14	704.0	548.5
91.15	705.0	548.5
91.16	719.0	548.6
91.17	708.0	548.6
91.18	682.0	548.6
91.19	674.0	548.7
91.2	669.0	548.7
91.21	665.0	548.7
91.22	658.0	548.7
91.23	663.0	548.8
91.24	685.0	548.8
91.25	671.0	548.8
91.26	656.0	548.9
91.27	680.0	548.9
91.28	705.0	548.9
91.29	704.0	548.9
91.3	695.0	549.0
91.31	693.0	549.0
91.32	673.0	549.0
91.33	661.0	549.1
91.34	660.0	549.1
91.35	650.0	549.1
91.36	675.0	549.1
91.37	709.0	549.2
91.38	705.0	549.2
91.39	683.0	549.2
91.4	656.0	549.3
91.41	646.0	549.3
91.42	653.0	549.3
91.43	646.0	549.3
91.44	634.0	549.4
91.45	629.0	549.4
91.46	632.0	549.4
91.47	650.0	549.4
91.48	656.0	549.5
91.49	633.0	549.5
91.5	633.0	549.5
91.51	640.0	549.6
91.52	621.0	549.6
91.53	599.0	549.6
91.54	594.0	549.6
91.55	602.0	549.7
91.56	606.0	549.7
91.57	611.0	549.7
91.58	619.0	549.8
91.59	621.0	549.8
91.6	598.0	549.8
91.61	601.0	549.8
91.62	623.0	549.9
91.63	611.0	549.9
91.64	600.0	549.9
91.65	615.0	550.0
91.66	629.0	550.0
91.67	622.0	550.0
91.68	584.0	550.0
91.69	564.0	550.1
91.7	586.0	550.1
91.71	591.0	550.1
91.72	590.0	550.2
91.73	588.0	550.2
91.74	588.0	550.2
91.75	596.0	550.2
91.76	591.0	550.3
91.77	575.0	550.3
91.78	575.0	550.3
91.79	590.0	550.3
91.8	595.0	550.4
91.81	601.0	550.4
91.82	588.0	550.4
91.83	572.0	550.5
91.84	582.0	550.5
91.85	590.0	550.5
91.86	579.0	550.5
91.87	575.0	550.6
91.88	579.0	550.6
91.89	586.0	550.6
91.9	588.0	550.7
91.91	572.0	550.7
91.92	572.0	550.7
91.93	595.0	550.7
91.94	611.0	550.8
91.95	610.0	550.8
91.96	596.0	550.8
91.97	575.0	550.8
91.98	583.0	550.9
91.99	597.0	550.9
92.0	591.0	550.9
92.01	581.0	551.0
92.02	584.0	551.0
92.03	591.0	551.0
92.04	580.0	551.0
92.05	574.0	551.1
92.06	578.0	551.1
92.07	575.0	551.1
92.08	555.0	551.1
92.09	544.0	551.2
92.1	557.0	551.2
92.11	556.0	551.2
92.12	556.0	551.3
92.13	564.0	551.3
92.14	567.0	551.3
92.15	580.0	551.3
92.16	584.0	551.4
92.17	584.0	551.4
92.18	572.0	551.4
92.19	568.0	551.4
92.2	573.0	551.5
92.21	575.0	551.5
92.22	591.0	551.5
92.23	593.0	551.6
92.24	606.0	551.6
92.25	607.0	551.6
92.26	568.0	551.6
92.27	549.0	551.7
92.28	560.0	551.7
92.29	572.0	551.7
92.3	578.0	551.7
92.31	579.0	551.8
92.32	566.0	551.8
92.33	552.0	551.8
92.34	572.0	551.8
92.35	578.0	551.9
92.36	578.0	551.9
92.37	583.0	551.9
92.38	585.0	551.9
92.39	589.0	552.0
92.4	580.0	552.0
92.41	572.0	552.0
92.42	581.0	552.1
92.43	590.0	552.1
92.44	598.0	552.1
92.45	590.0	552.1
92.46	575.0	552.2
92.47	565.0	552.2
92.48	561.0	552.2
92.49	565.0	552.2
92.5	560.0	552.3
92.51	555.0	552.3
92.52	564.0	552.3
92.53	569.0	552.3
92.54	574.0	552.4
92.55	595.0	552.4
92.56	595.0	552.4
92.57	600.0	552.4
92.58	600.0	552.5
92.59	576.0	552.5
92.6	577.0	552.5
92.61	576.0	552.6
92.62	569.0	552.6
92.63	586.0	552.6
92.64	599.0	552.6
92.65	589.0	552.7
92.66	567.0	552.7
92.67	560.0	552.7
92.68	563.0	552.7
92.69	579.0	552.8
92.7	585.0	552.8
92.71	577.0	552.8
92.72	580.0	552.8
92.73	579.0	552.9
92.74	581.0	552.9
92.75	582.0	552.9
92.76	594.0	552.9
92.77	600.0	553.0
92.78	577.0	553.0
92.79	545.0	553.0
92.8	558.0	553.0
92.81	587.0	553.1
92.82	598.0	553.1
92.83	577.0	553.1
92.84	577.0	553.1
92.85	601.0	553.2
92.86	602.0	553.2
92.87	591.0	553.2
92.88	595.0	553.2
92.89	598.0	553.3
92.9	604.0	553.3
92.91	592.0	553.3
92.92	570.0	553.3
92.93	568.0	553.4
92.94	580.0	553.4
92.95	573.0	553.4
92.96	563.0	553.4
92.97	582.0	553.5
92.98	588.0	553.5
92.99	572.0	553.5
93.0	557.0	553.5
93.01	567.0	553.6
93.02	593.0	553.6
93.03	587.0	553.6
93.04	572.0	553.6
93.05	582.0	553.7
93.06	581.0	553.7
93.07	596.0	553.7
93.08	600.0	553.7
93.09	594.0	553.8
93.1	573.0	553.8
93.11	574.0	553.8
93.12	581.0	553.8
93.13	585.0	553.9
93.14	584.0	553.9
93.15	577.0	553.9
93.16	600.0	553.9
93.17	639.0	554.0
93.18	619.0	554.0
93.19	593.0	554.0
93.2	583.0	554.0
93.21	593.0	554.1
93.22	582.0	554.1
93.23	563.0	554.1
93.24	580.0	554.1
93.25	592.0	554.2
93.26	582.0	554.2
93.27	598.0	554.2
93.28	605.0	554.2
93.29	604.0	554.3
93.3	608.0	554.3
93.31	612.0	554.3
93.32	605.0	554.3
93.33	587.0	554.4
93.34	578.0	554.4
93.35	580.0	554.4
93.36	601.0	554.4
93.37	617.0	554.5
93.38	611.0	554.5
93.39	600.0	554.5
93.4	601.0	554.5
93.41	611.0	554.6
93.42	618.0	554.6
93.43	602.0	554.6
93.44	614.0	554.6
93.45	618.0	554.7
93.46	605.0	554.7
93.47	603.0	554.7
93.48	598.0	554.7
93.49	598.0	554.7
93.5	603.0	554.8
93.51	598.0	554.8
93.52	595.0	554.8
93.53	607.0	554.8
93.54	607.0	554.9
93.55	615.0	554.9
93.56	632.0	554.9
93.57	632.0	554.9
93.58	615.0	555.0
93.59	611.0	555.0
93.6	610.0	555.0
93.61	592.0	555.0
93.62	606.0	555.1
93.63	631.0	555.1
93.64	623.0	555.1
93.65	625.0	555.1
93.66	634.0	555.2
93.67	620.0	555.2
93.68	621.0	555.2
93.69	622.0	555.2
93.7	610.0	555.2
93.71	599.0	555.3
93.72	601.0	555.3
93.73	623.0	555.3
93.74	658.0	555.3
93.75	661.0	555.4
93.76	623.0	555.4
93.77	617.0	555.4
93.78	639.0	555.4
93.79	635.0	555.5
93.8	632.0	555.5
93.81	644.0	555.5
93.82	654.0	555.5
93.83	671.0	555.6
93.84	659.0	555.6
93.85	638.0	555.6
93.86	651.0	555.6
93.87	660.0	555.6
93.88	670.0	555.7
93.89	689.0	555.7
93.9	696.0	555.7
93.91	697.0	555.7
93.92	704.0	555.8
93.93	692.0	555.8
93.94	690.0	555.8
93.95	688.0	555.8
93.96	702.0	555.9
93.97	730.0	555.9
93.98	735.0	555.9
93.99	710.0	555.9
94.0	691.0	555.9
94.01	691.0	556.0
94.02	691.0	556.0
94.03	713.0	556.0
94.04	722.0	556.0
94.05	708.0	556.1
94.06	723.0	556.1
94.07	737.0	556.1
94.08	728.0	556.1
94.09	717.0	556.2
94.1	706.0	556.2
94.11	709.0	556.2
94.12	728.0	556.2
94.13	734.0	556.2
94.14	695.0	556.3
94.15	699.0	556.3
94.16	701.0	556.3
94.17	702.0	556.3
94.18	707.0	556.4
94.19	720.0	556.4
94.2	712.0	556.4
94.21	695.0	556.4
94.22	667.0	556.5
94.23	670.0	556.5
94.24	700.0	556.5
94.25	711.0	556.5
94.26	718.0	556.5
94.27	726.0	556.6
94.28	699.0	556.6
94.29	698.0	556.6
94.3	696.0	556.6
94.31	704.0	556.7
94.32	702.0	556.7
94.33	710.0	556.7
94.34	707.0	556.7
94.35	690.0	556.7
94.36	680.0	556.8
94.37	691.0	556.8
94.38	700.0	556.8
94.39	681.0	556.8
94.4	674.0	556.9
94.41	677.0	556.9
94.42	700.0	556.9
94.43	680.0	556.9
94.44	672.0	556.9
94.45	678.0	557.0
94.46	682.0	557.0
94.47	708.0	557.0
94.48	697.0	557.0
94.49	679.0	557.1
94.5	644.0	557.1
94.51	637.0	557.1
94.52	663.0	557.1
94.53	663.0	557.1
94.54	672.0	557.2
94.55	674.0	557.2
94.56	658.0	557.2
94.57	662.0	557.2
94.58	664.0	557.3
94.59	671.0	557.3
94.6	678.0	557.3
94.61	664.0	557.3
94.62	635.0	557.3
94.63	649.0	557.4
94.64	661.0	557.4
94.65	652.0	557.4
94.66	651.0	557.4
94.67	649.0	557.5
94.68	631.0	557.5
94.69	638.0	557.5
94.7	643.0	557.5
94.71	665.0	557.5
94.72	687.0	557.6
94.73	647.0	557.6
94.74	633.0	557.6
94.75	627.0	557.6
94.76	638.0	557.7
94.77	676.0	557.7
94.78	670.0	557.7
94.79	644.0	557.7
94.8	611.0	557.7
94.81	603.0	557.8
94.82	643.0	557.8
94.83	654.0	557.8
94.84	662.0	557.8
94.85	649.0	557.8
94.86	647.0	557.9
94.87	649.0	557.9
94.88	637.0	557.9
94.89	617.0	557.9
94.9	606.0	558.0
94.91	637.0	558.0
94.92	657.0	558.0
94.93	634.0	558.0
94.94	634.0	558.0
94.95	639.0	558.1
94.96	636.0	558.1
94.97	640.0	558.1
94.98	637.0	558.1
94.99	627.0	558.1
95.0	622.0	558.2
95.01	644.0	558.2
95.02	651.0	558.2
95.03	640.0	558.2
95.04	616.0	558.3
95.05	629.0	558.3
95.06	638.0	558.3
95.07	637.0	558.3
95.08	646.0	558.3
95.09	620.0	558.4
95.1	625.0	558.4
95.11	635.0	558.4
95.12	634.0	558.4
95.13	624.0	558.4
95.14	635.0	558.5
95.15	631.0	558.5
95.16	634.0	558.5
95.17	644.0	558.5
95.18	639.0	558.5
95.19	635.0	558.6
95.2	660.0	558.6
95.21	686.0	558.6
95.22	700.0	558.6
95.23	676.0	558.7
95.24	629.0	558.7
95.25	619.0	558.7
95.26	647.0	558.7
95.27	655.0	558.7
95.28	646.0	558.8
95.29	652.0	558.8
95.3	659.0	558.8
95.31	656.0	558.8
95.32	655.0	558.8
95.33	620.0	558.9
95.34	622.0	558.9
95.35	648.0	558.9
95.36	639.0	558.9
95.37	650.0	558.9
95.38	642.0	559.0
95.39	653.0	559.0
95.4	648.0	559.0
95.41	643.0	559.0
95.42	655.0	559.1
95.43	644.0	559.1
95.44	645.0	559.1
95.45	647.0	559.1
95.46	632.0	559.1
95.47	620.0	559.2
95.48	656.0	559.2
95.49	653.0	559.2
95.5	635.0	559.2
95.51	632.0	559.2
95.52	641.0	559.3
95.53	650.0	559.3
95.54	659.0	559.3
95.55	645.0	559.3
95.56	652.0	559.3
95.57	640.0	559.4
95.58	641.0	559.4
95.59	640.0	559.4
95.6	638.0	559.4
95.61	622.0	559.4
95.62	639.0	559.5
95.63	643.0	559.5
95.64	641.0	559.5
95.65	652.0	559.5
95.66	647.0	559.5
95.67	619.0	559.6
95.68	626.0	559.6
95.69	657.0	559.6
95.7	656.0	559.6
95.71	625.0	559.6
95.72	644.0	559.7
95.73	633.0	559.7
95.74	654.0	559.7
95.75	686.0	559.7
95.76	685.0	559.7
95.77	662.0	559.8
95.78	638.0	559.8
95.79	648.0	559.8
95.8	660.0	559.8
95.81	644.0	559.9
95.82	639.0	559.9
95.83	658.0	559.9
95.84	684.0	559.9
95.85	666.0	559.9
95.86	643.0	560.0
95.87	649.0	560.0
95.88	650.0	560.0
95.89	630.0	560.0
95.9	617.0	560.0
95.91	622.0	560.1
95.92	636.0	560.1
95.93	677.0	560.1
95.94	672.0	560.1
95.95	652.0	560.1
95.96	667.0	560.2
95.97	676.0	560.2
95.98	663.0	560.2
95.99	626.0	560.2
96.0	625.0	560.2
96.01	629.0	560.3
96.02	627.0	560.3
96.03	618.0	560.3
96.04	647.0	560.3
96.05	650.0	560.3
96.06	637.0	560.4
96.07	638.0	560.4
96.08	647.0	560.4
96.09	613.0	560.4
96.1	632.0	560.4
96.11	652.0	560.5
96.12	636.0	560.5
96.13	625.0	560.5
96.14	635.0	560.5
96.15	650.0	560.5
96.16	629.0	560.6
96.17	653.0	560.6
96.18	663.0	560.6
96.19	684.0	560.6
96.2	666.0	560.6
96.21	651.0	560.7
96.22	658.0	560.7
96.23	616.0	560.7
96.24	618.0	560.7
96.25	637.0	560.7
96.26	640.0	560.7
96.27	630.0	560.8
96.28	607.0	560.8
96.29	630.0	560.8
96.3	654.0	560.8
96.31	634.0	560.8
96.32	624.0	560.9
96.33	612.0	560.9
96.34	615.0	560.9
96.35	609.0	560.9
96.36	637.0	560.9
96.37	652.0	561.0
96.38	621.0	561.0
96.39	619.0	561.0
96.4	617.0	561.0
96.41	655.0	561.0
96.42	626.0	561.1
96.43	602.0	561.1
96.44	610.0	561.1
96.45	601.0	561.1
96.46	613.0	561.1
96.47	642.0	561.2
96.48	658.0	561.2
96.49	646.0	561.2
96.5	616.0	561.2
96.51	619.0	561.2
96.52	608.0	561.3
96.53	598.0	561.3
96.54	612.0	561.3
96.55	595.0	561.3
96.56	578.0	561.3
96.57	572.0	561.4
96.58	596.0	561.4
96.59	612.0	561.4
96.6	626.0	561.4
96.61	588.0	561.4
96.62	598.0	561.4
96.63	583.0	561.5
96.64	596.0	561.5
96.65	585.0	561.5
96.66	601.0	561.5
96.67	579.0	561.5
96.68	608.0	561.6
96.69	630.0	561.6
96.7	614.0	561.6
96.71	606.0	561.6
96.72	594.0	561.6
96.73	575.0	561.7
96.74	600.0	561.7
96.75	585.0	561.7
96.76	579.0	561.7
96.77	604.0	561.7
96.78	588.0	561.8
96.79	606.0	561.8
96.8	590.0	561.8
96.81	582.0	561.8
96.82	584.0	561.8
96.83	582.0	561.9
96.84	572.0	561.9
96.85	593.0	561.9
96.86	594.0	561.9
96.87	594.0	561.9
96.88	604.0	561.9
96.89	610.0	562.0
96.9	583.0	562.0
96.91	569.0	562.0
96.92	620.0	562.0
96.93	625.0	562.0
96.94	628.0	562.1
96.95	613.0	562.1
96.96	600.0	562.1
96.97	598.0	562.1
96.98	594.0	562.1
96.99	605.0	562.2
97.0	614.0	562.2
97.01	595.0	562.2
97.02	587.0	562.2
97.03	562.0	562.2
97.04	606.0	562.3
97.05	613.0	562.3
97.06	579.0	562.3
97.07	581.0	562.3
97.08	580.0	562.3
97.09	594.0	562.3
97.1	593.0	562.4
97.11	608.0	562.4
97.12	589.0	562.4
97.13	576.0	562.4
97.14	587.0	562.4
97.15	592.0	562.5
97.16	596.0	562.5
97.17	597.0	562.5
97.18	611.0	562.5
97.19	605.0	562.5
97.2	601.0	562.6
97.21	603.0	562.6
97.22	595.0	562.6
97.23	611.0	562.6
97.24	617.0	562.6
97.25	570.0	562.6
97.26	562.0	562.7
97.27	565.0	562.7
97.28	576.0	562.7
97.29	592.0	562.7
97.3	578.0	562.7
97.31	588.0	562.8
97.32	588.0	562.8
97.33	580.0	562.8
97.34	593.0	562.8
97.35	602.0	562.8
97.36	606.0	562.9
97.37	577.0	562.9
97.38	603.0	562.9
97.39	605.0	562.9
97.4	594.0	562.9
97.41	590.0	562.9
97.42	586.0	563.0
97.43	590.0	563.0
97.44	560.0	563.0
97.45	573.0	563.0
97.46	569.0	563.0
97.47	586.0	563.1
97.48	600.0	563.1
97.49	611.0	563.1
97.5	613.0	563.1
97.51	607.0	563.1
97.52	603.0	563.1
97.53	590.0	563.2
97.54	593.0	563.2
97.55	600.0	563.2
97.56	604.0	563.2
97.57	596.0	563.2
97.58	574.0	563.3
97.59	599.0	563.3
97.6	630.0	563.3
97.61	611.0	563.3
97.62	581.0	563.3
97.63	576.0	563.3
97.64	585.0	563.4
97.65	573.0	563.4
97.66	603.0	563.4
97.67	625.0	563.4
97.68	629.0	563.4
97.69	589.0	563.5
97.7	572.0	563.5
97.71	608.0	563.5
97.72	602.0	563.5
97.73	601.0	563.5
97.74	574.0	563.6
97.75	580.0	563.6
97.76	600.0	563.6
97.77	610.0	563.6
97.78	585.0	563.6
97.79	564.0	563.6
97.8	573.0	563.7
97.81	572.0	563.7
97.82	580.0	563.7
97.83	567.0	563.7
97.84	607.0	563.7
97.85	619.0	563.8
97.86	603.0	563.8
97.87	583.0	563.8
97.88	571.0	563.8
97.89	585.0	563.8
97.9	610.0	563.8
97.91	613.0	563.9
97.92	607.0	563.9
97.93	605.0	563.9
97.94	597.0	563.9
97.95	595.0	563.9
97.96	593.0	564.0
97.97	575.0	564.0
97.98	558.0	564.0
97.99	573.0	564.0
98.0	571.0	564.0
98.01	581.0	564.0
98.02	576.0	564.1
98.03	567.0	564.1
98.04	568.0	564.1
98.05	585.0	564.1
98.06	597.0	564.1
98.07	577.0	564.2
98.08	571.0	564.2
98.09	595.0	564.2
98.1	621.0	564.2
98.11	605.0	564.2
98.12	601.0	564.2
98.13	590.0	564.3
98.14	596.0	564.3
98.15	603.0	564.3
98.16	611.0	564.3
98.17	609.0	564.3
98.18	589.0	564.4
98.19	594.0	564.4
98.2	597.0	564.4
98.21	585.0	564.4
98.22	595.0	564.4
98.23	617.0	564.4
98.24	617.0	564.5
98.25	602.0	564.5
98.26	607.0	564.5
98.27	590.0	564.5
98.28	625.0	564.5
98.29	638.0	564.5
98.3	614.0	564.6
98.31	611.0	564.6
98.32	616.0	564.6
98.33	623.0	564.6
98.34	618.0	564.6
98.35	595.0	564.7
98.36	629.0	564.7
98.37	637.0	564.7
98.38	615.0	564.7
98.39	626.0	564.7
98.4	667.0	564.7
98.41	650.0	564.8
98.42	621.0	564.8
98.43	606.0	564.8
98.44	628.0	564.8
98.45	601.0	564.8
98.46	623.0	564.9
98.47	606.0	564.9
98.48	630.0	564.9
98.49	645.0	564.9
98.5	641.0	564.9
98.51	625.0	564.9
98.52	615.0	565.0
98.53	626.0	565.0
98.54	680.0	565.0
98.55	670.0	565.0
98.56	635.0	565.0
98.57	640.0	565.1
98.58	651.0	565.1
98.59	641.0	565.1
98.6	628.0	565.1
98.61	623.0	565.1
98.62	613.0	565.1
98.63	654.0	565.2
98.64	652.0	565.2
98.65	652.0	565.2
98.66	627.0	565.2
98.67	647.0	565.2
98.68	675.0	565.2
98.69	667.0	565.3
98.7	660.0	565.3
98.71	669.0	565.3
98.72	649.0	565.3
98.73	616.0	565.3
98.74	621.0	565.4
98.75	677.0	565.4
98.76	645.0	565.4
98.77	627.0	565.4
98.78	597.0	565.4
98.79	623.0	565.4
98.8	665.0	565.5
98.81	658.0	565.5
98.82	634.0	565.5
98.83	646.0	565.5
98.84	647.0	565.5
98.85	656.0	565.5
98.86	648.0	565.6
98.87	652.0	565.6
98.88	665.0	565.6
98.89	646.0	565.6
98.9	607.0	565.6
98.91	652.0	565.7
98.92	638.0	565.7
98.93	654.0	565.7
98.94	626.0	565.7
98.95	628.0	565.7
98.96	648.0	565.7
98.97	651.0	565.8
98.98	657.0	565.8
98.99	677.0	565.8
99.0	659.0	565.8
99.01	652.0	565.8
99.02	631.0	565.9
99.03	614.0	565.9
99.04	635.0	565.9
99.05	625.0	565.9
99.06	630.0	565.9
99.07	644.0	565.9
99.08	625.0	566.0
99.09	640.0	566.0
99.1	613.0	566.0
99.11	612.0	566.0
99.12	625.0	566.0
99.13	616.0	566.0
99.14	589.0	566.1
99.15	632.0	566.1
99.16	626.0	566.1
99.17	607.0	566.1
99.18	598.0	566.1
99.19	574.0	566.2
99.2	599.0	566.2
99.21	632.0	566.2
99.22	638.0	566.2
99.23	634.0	566.2
99.24	619.0	566.2
99.25	603.0	566.3
99.26	610.0	566.3
99.27	590.0	566.3
99.28	628.0	566.3
99.29	617.0	566.3
99.3	605.0	566.3
99.31	613.0	566.4
99.32	589.0	566.4
99.33	621.0	566.4
99.34	623.0	566.4
99.35	607.0	566.4
99.36	626.0	566.4
99.37	595.0	566.5
99.38	622.0	566.5
99.39	600.0	566.5
99.4	580.0	566.5
99.41	583.0	566.5
99.42	607.0	566.6
99.43	592.0	566.6
99.44	599.0	566.6
99.45	614.0	566.6
99.46	577.0	566.6
99.47	584.0	566.6
99.48	624.0	566.7
99.49	615.0	566.7
99.5	593.0	566.7
99.51	580.0	566.7
99.52	602.0	566.7
99.53	620.0	566.7
99.54	608.0	566.8
99.55	582.0	566.8
99.56	608.0	566.8
99.57	603.0	566.8
99.58	588.0	566.8
99.59	606.0	566.9
99.6	613.0	566.9
99.61	579.0	566.9
99.62	556.0	566.9
99.63	613.0	566.9
99.64	609.0	566.9
99.65	581.0	567.0
99.66	572.0	567.0
99.67	619.0	567.0
99.68	604.0	567.0
99.69	595.0	567.0
99.7	583.0	567.0
99.71	578.0	567.1
99.72	572.0	567.1
99.73	576.0	567.1
99.74	584.0	567.1
99.75	562.0	567.1
99.76	585.0	567.2
99.77	599.0	567.2
99.78	606.0	567.2
99.79	559.0	567.2
99.8	591.0	567.2
99.81	596.0	567.2
99.82	582.0	567.3
99.83	589.0	567.3
99.84	606.0	567.3
99.85	602.0	567.3
99.86	587.0	567.3
99.87	572.0	567.3
99.88	544.0	567.4
99.89	575.0	567.4
99.9	591.0	567.4
99.91	582.0	567.4
99.92	587.0	567.4
99.93	611.0	567.5
99.94	636.0	567.5
99.95	599.0	567.5
99.96	602.0	567.5
99.97	623.0	567.5
99.98	608.0	567.5
99.99	569.0	567.6
100.0	570.0	567.6
