Multi_50%LiMnO2_50%L
Wavelength = 1.54059 Ã… (Cu)
Angle	I(o)	I(b)
10.0	1979.0	1977.9
10.01	1984.0	1978.7
10.02	2032.0	1979.5
10.03	1975.0	1980.3
10.04	1961.0	1981.1
10.05	1985.0	1981.9
10.06	1930.0	1982.6
10.07	1963.0	1983.4
10.08	1971.0	1984.2
10.09	1966.0	1985.0
10.1	2014.0	1985.8
10.11	2038.0	1986.6
10.12	2040.0	1987.4
10.13	2001.0	1988.2
10.14	2038.0	1989.0
10.15	2029.0	1989.8
10.16	1950.0	1990.6
10.17	1916.0	1991.4
10.18	1944.0	1992.2
10.19	1983.0	1993.0
10.2	2019.0	1993.8
10.21	2015.0	1994.6
10.22	1981.0	1995.4
10.23	2013.0	1996.2
10.24	2043.0	1997.0
10.25	2082.0	1997.8
10.26	2029.0	1998.6
10.27	2028.0	1999.4
10.28	2092.0	2000.2
10.29	2074.0	2001.0
10.3	2045.0	2001.8
10.31	2068.0	2002.6
10.32	2071.0	2003.4
10.33	2028.0	2004.2
10.34	1979.0	2005.0
10.35	1993.0	2005.8
10.36	2043.0	2006.6
10.37	2027.0	2007.4
10.38	1994.0	2008.2
10.39	2039.0	2009.0
10.4	1998.0	2009.8
10.41	2020.0	2010.6
10.42	2041.0	2011.4
10.43	2054.0	2012.3
10.44	2027.0	2013.1
10.45	2012.0	2013.9
10.46	2020.0	2014.7
10.47	2015.0	2015.5
10.48	2010.0	2016.3
10.49	2005.0	2017.1
10.5	2012.0	2018.0
10.51	2061.0	2018.8
10.52	2016.0	2019.6
10.53	2003.0	2020.4
10.54	2024.0	2021.2
10.55	2039.0	2022.1
10.56	2013.0	2022.9
10.57	1963.0	2023.7
10.58	1996.0	2024.5
10.59	2021.0	2025.4
10.6	2029.0	2026.2
10.61	2041.0	2027.0
10.62	2042.0	2027.9
10.63	2046.0	2028.7
10.64	2099.0	2029.5
10.65	2086.0	2030.4
10.66	1997.0	2031.2
10.67	2033.0	2032.1
10.68	2061.0	2032.9
10.69	2037.0	2033.7
10.7	2034.0	2034.6
10.71	2100.0	2035.4
10.72	2056.0	2036.3
10.73	2001.0	2037.1
10.74	2118.0	2038.0
10.75	2080.0	2038.8
10.76	2051.0	2039.7
10.77	1998.0	2040.5
10.78	1935.0	2041.4
10.79	1970.0	2042.2
10.8	2044.0	2043.1
10.81	2065.0	2044.0
10.82	2055.0	2044.8
10.83	2056.0	2045.7
10.84	2077.0	2046.5
10.85	2045.0	2047.4
10.86	2025.0	2048.3
10.87	2074.0	2049.2
10.88	2110.0	2050.0
10.89	2152.0	2050.9
10.9	2096.0	2051.8
10.91	2066.0	2052.7
10.92	2027.0	2053.5
10.93	1990.0	2054.4
10.94	2035.0	2055.3
10.95	2038.0	2056.2
10.96	2113.0	2057.1
10.97	2142.0	2058.0
10.98	2102.0	2058.9
10.99	2088.0	2059.7
11.0	2068.0	2060.6
11.01	2024.0	2061.5
11.02	2115.0	2062.4
11.03	2156.0	2063.3
11.04	2096.0	2064.2
11.05	2060.0	2065.2
11.06	2078.0	2066.1
11.07	2043.0	2067.0
11.08	2066.0	2067.9
11.09	2137.0	2068.8
11.1	2181.0	2069.7
11.11	2177.0	2070.6
11.12	2069.0	2071.6
11.13	2020.0	2072.5
11.14	2030.0	2073.4
11.15	2108.0	2074.3
11.16	2154.0	2075.3
11.17	2082.0	2076.2
11.18	2136.0	2077.1
11.19	2097.0	2078.1
11.2	2096.0	2079.0
11.21	2059.0	2080.0
11.22	2089.0	2080.9
11.23	2085.0	2081.9
11.24	2110.0	2082.8
11.25	2104.0	2083.8
11.26	2110.0	2084.7
11.27	2085.0	2085.7
11.28	2059.0	2086.6
11.29	2074.0	2087.6
11.3	2113.0	2088.5
11.31	2121.0	2089.5
11.32	2081.0	2090.5
11.33	2047.0	2091.4
11.34	2082.0	2092.4
11.35	2103.0	2093.4
11.36	2042.0	2094.3
11.37	2109.0	2095.3
11.38	2107.0	2096.3
11.39	2071.0	2097.3
11.4	2020.0	2098.2
11.41	2070.0	2099.2
11.42	2137.0	2100.2
11.43	2052.0	2101.2
11.44	2065.0	2102.2
11.45	2081.0	2103.2
11.46	2106.0	2104.1
11.47	2105.0	2105.1
11.48	2096.0	2106.1
11.49	2127.0	2107.1
11.5	2104.0	2108.1
11.51	2109.0	2109.1
11.52	2118.0	2110.1
11.53	2176.0	2111.1
11.54	2145.0	2112.1
11.55	2145.0	2113.1
11.56	2189.0	2114.1
11.57	2073.0	2115.1
11.58	2082.0	2116.1
11.59	2135.0	2117.1
11.6	2157.0	2118.1
11.61	2102.0	2119.1
11.62	2116.0	2120.1
11.63	2158.0	2121.1
11.64	2149.0	2122.1
11.65	2166.0	2123.1
11.66	2135.0	2124.2
11.67	2145.0	2125.2
11.68	2139.0	2126.2
11.69	2145.0	2127.2
11.7	2107.0	2128.2
11.71	2115.0	2129.2
11.72	2110.0	2130.2
11.73	2122.0	2131.2
11.74	2169.0	2132.3
11.75	2155.0	2133.3
11.76	2127.0	2134.3
11.77	2186.0	2135.3
11.78	2180.0	2136.3
11.79	2184.0	2137.4
11.8	2259.0	2138.4
11.81	2156.0	2139.4
11.82	2167.0	2140.4
11.83	2141.0	2141.4
11.84	2205.0	2142.5
11.85	2193.0	2143.5
11.86	2177.0	2144.5
11.87	2133.0	2145.5
11.88	2106.0	2146.5
11.89	2123.0	2147.6
11.9	2133.0	2148.6
11.91	2144.0	2149.6
11.92	2158.0	2150.6
11.93	2135.0	2151.7
11.94	2151.0	2152.7
11.95	2143.0	2153.7
11.96	2075.0	2154.7
11.97	2125.0	2155.8
11.98	2141.0	2156.8
11.99	2179.0	2157.8
12.0	2174.0	2158.8
12.01	2237.0	2159.8
12.02	2176.0	2160.9
12.03	2211.0	2161.9
12.04	2180.0	2162.9
12.05	2205.0	2163.9
12.06	2174.0	2165.0
12.07	2181.0	2166.0
12.08	2169.0	2167.0
12.09	2167.0	2168.0
12.1	2131.0	2169.0
12.11	2210.0	2170.1
12.12	2168.0	2171.1
12.13	2152.0	2172.1
12.14	2188.0	2173.1
12.15	2213.0	2174.1
12.16	2270.0	2175.2
12.17	2229.0	2176.2
12.18	2200.0	2177.2
12.19	2222.0	2178.2
12.2	2196.0	2179.2
12.21	2200.0	2180.2
12.22	2255.0	2181.3
12.23	2234.0	2182.3
12.24	2222.0	2183.3
12.25	2214.0	2184.3
12.26	2183.0	2185.3
12.27	2215.0	2186.3
12.28	2200.0	2187.3
12.29	2162.0	2188.3
12.3	2188.0	2189.3
12.31	2200.0	2190.3
12.32	2246.0	2191.3
12.33	2293.0	2192.4
12.34	2254.0	2193.4
12.35	2204.0	2194.4
12.36	2164.0	2195.4
12.37	2122.0	2196.4
12.38	2195.0	2197.4
12.39	2184.0	2198.4
12.4	2194.0	2199.4
12.41	2203.0	2200.3
12.42	2188.0	2201.3
12.43	2204.0	2202.3
12.44	2213.0	2203.3
12.45	2226.0	2204.3
12.46	2187.0	2205.3
12.47	2227.0	2206.3
12.48	2182.0	2207.3
12.49	2183.0	2208.3
12.5	2210.0	2209.2
12.51	2198.0	2210.2
12.52	2196.0	2211.2
12.53	2193.0	2212.2
12.54	2236.0	2213.2
12.55	2250.0	2214.1
12.56	2297.0	2215.1
12.57	2242.0	2216.1
12.58	2190.0	2217.1
12.59	2191.0	2218.0
12.6	2229.0	2219.0
12.61	2253.0	2219.9
12.62	2272.0	2220.9
12.63	2304.0	2221.9
12.64	2281.0	2222.8
12.65	2201.0	2223.8
12.66	2249.0	2224.7
12.67	2202.0	2225.7
12.68	2168.0	2226.6
12.69	2215.0	2227.6
12.7	2236.0	2228.5
12.71	2237.0	2229.5
12.72	2264.0	2230.4
12.73	2255.0	2231.4
12.74	2227.0	2232.3
12.75	2233.0	2233.2
12.76	2232.0	2234.2
12.77	2221.0	2235.1
12.78	2228.0	2236.0
12.79	2258.0	2237.0
12.8	2262.0	2237.9
12.81	2250.0	2238.8
12.82	2323.0	2239.7
12.83	2310.0	2240.6
12.84	2288.0	2241.6
12.85	2222.0	2242.5
12.86	2271.0	2243.4
12.87	2231.0	2244.3
12.88	2200.0	2245.2
12.89	2267.0	2246.1
12.9	2273.0	2247.0
12.91	2200.0	2247.9
12.92	2260.0	2248.8
12.93	2259.0	2249.7
12.94	2232.0	2250.6
12.95	2213.0	2251.5
12.96	2205.0	2252.3
12.97	2221.0	2253.2
12.98	2291.0	2254.1
12.99	2301.0	2255.0
13.0	2258.0	2255.8
13.01	2246.0	2256.7
13.02	2203.0	2257.6
13.03	2210.0	2258.4
13.04	2271.0	2259.3
13.05	2235.0	2260.2
13.06	2201.0	2261.0
13.07	2256.0	2261.9
13.08	2278.0	2262.7
13.09	2275.0	2263.6
13.1	2297.0	2264.4
13.11	2231.0	2265.2
13.12	2293.0	2266.1
13.13	2336.0	2266.9
13.14	2293.0	2267.7
13.15	2299.0	2268.5
13.16	2296.0	2269.4
13.17	2307.0	2270.2
13.18	2305.0	2271.0
13.19	2309.0	2271.8
13.2	2292.0	2272.6
13.21	2261.0	2273.4
13.22	2277.0	2274.2
13.23	2242.0	2275.0
13.24	2237.0	2275.8
13.25	2293.0	2276.6
13.26	2312.0	2277.4
13.27	2328.0	2278.2
13.28	2313.0	2278.9
13.29	2285.0	2279.7
13.3	2250.0	2280.5
13.31	2231.0	2281.3
13.32	2298.0	2282.0
13.33	2341.0	2282.8
13.34	2276.0	2283.5
13.35	2228.0	2284.3
13.36	2308.0	2285.0
13.37	2310.0	2285.8
13.38	2267.0	2286.5
13.39	2263.0	2287.3
13.4	2268.0	2288.0
13.41	2319.0	2288.7
13.42	2285.0	2289.4
13.43	2282.0	2290.2
13.44	2299.0	2290.9
13.45	2295.0	2291.6
13.46	2318.0	2292.3
13.47	2300.0	2293.0
13.48	2283.0	2293.7
13.49	2313.0	2294.4
13.5	2339.0	2295.1
13.51	2330.0	2295.8
13.52	2296.0	2296.5
13.53	2323.0	2297.1
13.54	2339.0	2297.8
13.55	2298.0	2298.5
13.56	2248.0	2299.2
13.57	2275.0	2299.8
13.58	2309.0	2300.5
13.59	2350.0	2301.2
13.6	2347.0	2301.8
13.61	2314.0	2302.5
13.62	2353.0	2303.1
13.63	2308.0	2303.7
13.64	2304.0	2304.4
13.65	2353.0	2305.0
13.66	2289.0	2305.7
13.67	2291.0	2306.3
13.68	2308.0	2306.9
13.69	2306.0	2307.5
13.7	2349.0	2308.1
13.71	2307.0	2308.8
13.72	2274.0	2309.4
13.73	2314.0	2310.0
13.74	2337.0	2310.6
13.75	2329.0	2311.2
13.76	2352.0	2311.8
13.77	2336.0	2312.4
13.78	2353.0	2312.9
13.79	2342.0	2313.5
13.8	2314.0	2314.1
13.81	2320.0	2314.7
13.82	2334.0	2315.3
13.83	2326.0	2315.8
13.84	2335.0	2316.4
13.85	2349.0	2316.9
13.86	2283.0	2317.5
13.87	2293.0	2318.1
13.88	2329.0	2318.6
13.89	2268.0	2319.2
13.9	2278.0	2319.7
13.91	2300.0	2320.2
13.92	2328.0	2320.8
13.93	2310.0	2321.3
13.94	2287.0	2321.8
13.95	2320.0	2322.4
13.96	2351.0	2322.9
13.97	2364.0	2323.4
13.98	2345.0	2323.9
13.99	2323.0	2324.4
14.0	2337.0	2324.9
14.01	2347.0	2325.4
14.02	2377.0	2325.9
14.03	2366.0	2326.4
14.04	2337.0	2326.9
14.05	2346.0	2327.4
14.06	2346.0	2327.9
14.07	2346.0	2328.4
14.08	2340.0	2328.8
14.09	2329.0	2329.3
14.1	2307.0	2329.8
14.11	2277.0	2330.3
14.12	2290.0	2330.7
14.13	2340.0	2331.2
14.14	2385.0	2331.6
14.15	2366.0	2332.1
14.16	2367.0	2332.5
14.17	2413.0	2333.0
14.18	2350.0	2333.4
14.19	2300.0	2333.9
14.2	2340.0	2334.3
14.21	2405.0	2334.7
14.22	2434.0	2335.2
14.23	2423.0	2335.6
14.24	2394.0	2336.0
14.25	2365.0	2336.4
14.26	2364.0	2336.8
14.27	2350.0	2337.3
14.28	2334.0	2337.7
14.29	2320.0	2338.1
14.3	2350.0	2338.5
14.31	2341.0	2338.9
14.32	2330.0	2339.3
14.33	2322.0	2339.6
14.34	2317.0	2340.0
14.35	2362.0	2340.4
14.36	2362.0	2340.8
14.37	2320.0	2341.2
14.38	2324.0	2341.6
14.39	2347.0	2341.9
14.4	2366.0	2342.3
14.41	2376.0	2342.7
14.42	2348.0	2343.0
14.43	2379.0	2343.4
14.44	2405.0	2343.7
14.45	2380.0	2344.1
14.46	2363.0	2344.4
14.47	2384.0	2344.8
14.48	2378.0	2345.1
14.49	2365.0	2345.4
14.5	2413.0	2345.8
14.51	2379.0	2346.1
14.52	2377.0	2346.4
14.53	2373.0	2346.7
14.54	2316.0	2347.1
14.55	2324.0	2347.4
14.56	2335.0	2347.7
14.57	2324.0	2348.0
14.58	2347.0	2348.3
14.59	2348.0	2348.6
14.6	2353.0	2348.9
14.61	2321.0	2349.2
14.62	2385.0	2349.5
14.63	2403.0	2349.8
14.64	2379.0	2350.1
14.65	2382.0	2350.4
14.66	2368.0	2350.6
14.67	2334.0	2350.9
14.68	2297.0	2351.2
14.69	2312.0	2351.5
14.7	2340.0	2351.7
14.71	2359.0	2352.0
14.72	2394.0	2352.3
14.73	2380.0	2352.5
14.74	2368.0	2352.8
14.75	2388.0	2353.0
14.76	2402.0	2353.3
14.77	2395.0	2353.5
14.78	2367.0	2353.8
14.79	2350.0	2354.0
14.8	2360.0	2354.2
14.81	2349.0	2354.5
14.82	2342.0	2354.7
14.83	2330.0	2354.9
14.84	2350.0	2355.1
14.85	2385.0	2355.4
14.86	2366.0	2355.6
14.87	2338.0	2355.8
14.88	2351.0	2356.0
14.89	2362.0	2356.2
14.9	2365.0	2356.4
14.91	2362.0	2356.6
14.92	2367.0	2356.8
14.93	2388.0	2357.0
14.94	2410.0	2357.2
14.95	2455.0	2357.4
14.96	2478.0	2357.6
14.97	2453.0	2357.8
14.98	2421.0	2357.9
14.99	2467.0	2358.1
15.0	2462.0	2358.3
15.01	2506.0	2358.5
15.02	2434.0	2358.6
15.03	2413.0	2358.8
15.04	2456.0	2358.9
15.05	2451.0	2359.1
15.06	2444.0	2359.3
15.07	2435.0	2359.4
15.08	2442.0	2359.6
15.09	2474.0	2359.7
15.1	2517.0	2359.8
15.11	2479.0	2360.0
15.12	2491.0	2360.1
15.13	2581.0	2360.3
15.14	2564.0	2360.4
15.15	2559.0	2360.5
15.16	2605.0	2360.6
15.17	2637.0	2360.8
15.18	2740.0	2360.9
15.19	2694.0	2361.0
15.2	2704.0	2361.1
15.21	2725.0	2361.2
15.22	2751.0	2361.3
15.23	2809.0	2361.4
15.24	2888.0	2361.5
15.25	2938.0	2361.6
15.26	2977.0	2361.7
15.27	2998.0	2361.8
15.28	3061.0	2361.9
15.29	3147.0	2362.0
15.3	3252.0	2362.1
15.31	3318.0	2362.2
15.32	3409.0	2362.2
15.33	3505.0	2362.3
15.34	3577.0	2362.4
15.35	3718.0	2362.4
15.36	3811.0	2362.5
15.37	3872.0	2362.6
15.38	3916.0	2362.6
15.39	3905.0	2362.7
15.4	3918.0	2362.7
15.41	3878.0	2362.8
15.42	3794.0	2362.8
15.43	3697.0	2362.9
15.44	3590.0	2362.9
15.45	3435.0	2363.0
15.46	3291.0	2363.0
15.47	3222.0	2363.0
15.48	3152.0	2363.1
15.49	3041.0	2363.1
15.5	2928.0	2363.1
15.51	2890.0	2363.2
15.52	2848.0	2363.2
15.53	2772.0	2363.2
15.54	2694.0	2363.2
15.55	2658.0	2363.2
15.56	2706.0	2363.2
15.57	2720.0	2363.2
15.58	2692.0	2363.2
15.59	2670.0	2363.2
15.6	2649.0	2363.2
15.61	2632.0	2363.2
15.62	2580.0	2363.2
15.63	2534.0	2363.2
15.64	2596.0	2363.2
15.65	2622.0	2363.2
15.66	2612.0	2363.2
15.67	2589.0	2363.2
15.68	2568.0	2363.1
15.69	2584.0	2363.1
15.7	2572.0	2363.1
15.71	2535.0	2363.0
15.72	2544.0	2363.0
15.73	2542.0	2363.0
15.74	2510.0	2362.9
15.75	2462.0	2362.9
15.76	2469.0	2362.8
15.77	2526.0	2362.8
15.78	2492.0	2362.7
15.79	2461.0	2362.7
15.8	2470.0	2362.6
15.81	2487.0	2362.6
15.82	2463.0	2362.5
15.83	2451.0	2362.5
15.84	2483.0	2362.4
15.85	2437.0	2362.3
15.86	2409.0	2362.2
15.87	2460.0	2362.2
15.88	2504.0	2362.1
15.89	2489.0	2362.0
15.9	2457.0	2361.9
15.91	2484.0	2361.8
15.92	2487.0	2361.8
15.93	2447.0	2361.7
15.94	2432.0	2361.6
15.95	2437.0	2361.5
15.96	2459.0	2361.4
15.97	2452.0	2361.3
15.98	2439.0	2361.2
15.99	2437.0	2361.1
16.0	2374.0	2361.0
16.01	2375.0	2360.9
16.02	2439.0	2360.8
16.03	2479.0	2360.6
16.04	2468.0	2360.5
16.05	2434.0	2360.4
16.06	2429.0	2360.3
16.07	2444.0	2360.1
16.08	2422.0	2360.0
16.09	2371.0	2359.9
16.1	2364.0	2359.8
16.11	2403.0	2359.6
16.12	2411.0	2359.5
16.13	2406.0	2359.3
16.14	2403.0	2359.2
16.15	2360.0	2359.1
16.16	2337.0	2358.9
16.17	2334.0	2358.8
16.18	2361.0	2358.6
16.19	2386.0	2358.5
16.2	2370.0	2358.3
16.21	2385.0	2358.1
16.22	2406.0	2358.0
16.23	2374.0	2357.8
16.24	2409.0	2357.6
16.25	2427.0	2357.5
16.26	2400.0	2357.3
16.27	2418.0	2357.1
16.28	2412.0	2357.0
16.29	2391.0	2356.8
16.3	2363.0	2356.6
16.31	2302.0	2356.4
16.32	2314.0	2356.2
16.33	2349.0	2356.0
16.34	2358.0	2355.8
16.35	2353.0	2355.6
16.36	2397.0	2355.5
16.37	2419.0	2355.3
16.38	2395.0	2355.1
16.39	2371.0	2354.9
16.4	2372.0	2354.6
16.41	2395.0	2354.4
16.42	2396.0	2354.2
16.43	2411.0	2354.0
16.44	2377.0	2353.8
16.45	2386.0	2353.6
16.46	2408.0	2353.4
16.47	2369.0	2353.1
16.48	2372.0	2352.9
16.49	2413.0	2352.7
16.5	2385.0	2352.5
16.51	2354.0	2352.2
16.52	2401.0	2352.0
16.53	2431.0	2351.8
16.54	2401.0	2351.5
16.55	2343.0	2351.3
16.56	2328.0	2351.1
16.57	2333.0	2350.8
16.58	2345.0	2350.6
16.59	2374.0	2350.3
16.6	2367.0	2350.1
16.61	2345.0	2349.8
16.62	2364.0	2349.6
16.63	2371.0	2349.3
16.64	2361.0	2349.0
16.65	2400.0	2348.8
16.66	2382.0	2348.5
16.67	2360.0	2348.3
16.68	2347.0	2348.0
16.69	2351.0	2347.7
16.7	2372.0	2347.4
16.71	2396.0	2347.2
16.72	2377.0	2346.9
16.73	2347.0	2346.6
16.74	2360.0	2346.3
16.75	2386.0	2346.0
16.76	2388.0	2345.8
16.77	2370.0	2345.5
16.78	2375.0	2345.2
16.79	2401.0	2344.9
16.8	2370.0	2344.6
16.81	2336.0	2344.3
16.82	2356.0	2344.0
16.83	2382.0	2343.7
16.84	2386.0	2343.4
16.85	2372.0	2343.1
16.86	2324.0	2342.8
16.87	2309.0	2342.5
16.88	2319.0	2342.2
16.89	2331.0	2341.9
16.9	2394.0	2341.5
16.91	2419.0	2341.2
16.92	2362.0	2340.9
16.93	2330.0	2340.6
16.94	2336.0	2340.3
16.95	2317.0	2339.9
16.96	2345.0	2339.6
16.97	2403.0	2339.3
16.98	2421.0	2339.0
16.99	2420.0	2338.6
17.0	2407.0	2338.3
17.01	2419.0	2337.9
17.02	2433.0	2337.6
17.03	2382.0	2337.3
17.04	2342.0	2336.9
17.05	2301.0	2336.6
17.06	2292.0	2336.2
17.07	2368.0	2335.9
17.08	2415.0	2335.5
17.09	2398.0	2335.2
17.1	2376.0	2334.8
17.11	2338.0	2334.5
17.12	2307.0	2334.1
17.13	2338.0	2333.7
17.14	2392.0	2333.4
17.15	2390.0	2333.0
17.16	2388.0	2332.7
17.17	2421.0	2332.3
17.18	2419.0	2331.9
17.19	2416.0	2331.5
17.2	2428.0	2331.2
17.21	2385.0	2330.8
17.22	2326.0	2330.4
17.23	2321.0	2330.0
17.24	2350.0	2329.7
17.25	2385.0	2329.3
17.26	2397.0	2328.9
17.27	2388.0	2328.5
17.28	2373.0	2328.1
17.29	2332.0	2327.7
17.3	2312.0	2327.3
17.31	2339.0	2326.9
17.32	2366.0	2326.5
17.33	2359.0	2326.1
17.34	2339.0	2325.7
17.35	2315.0	2325.3
17.36	2322.0	2324.9
17.37	2354.0	2324.5
17.38	2376.0	2324.1
17.39	2403.0	2323.7
17.4	2407.0	2323.3
17.41	2388.0	2322.9
17.42	2347.0	2322.5
17.43	2337.0	2322.0
17.44	2365.0	2321.6
17.45	2356.0	2321.2
17.46	2337.0	2320.8
17.47	2348.0	2320.4
17.48	2356.0	2319.9
17.49	2366.0	2319.5
17.5	2353.0	2319.1
17.51	2354.0	2318.6
17.52	2374.0	2318.2
17.53	2348.0	2317.8
17.54	2323.0	2317.3
17.55	2336.0	2316.9
17.56	2378.0	2316.5
17.57	2364.0	2316.0
17.58	2337.0	2315.6
17.59	2376.0	2315.1
17.6	2376.0	2314.7
17.61	2328.0	2314.2
17.62	2310.0	2313.8
17.63	2352.0	2313.3
17.64	2391.0	2312.9
17.65	2392.0	2312.4
17.66	2399.0	2312.0
17.67	2363.0	2311.5
17.68	2317.0	2311.1
17.69	2324.0	2310.6
17.7	2334.0	2310.1
17.71	2338.0	2309.7
17.72	2386.0	2309.2
17.73	2404.0	2308.7
17.74	2384.0	2308.3
17.75	2405.0	2307.8
17.76	2405.0	2307.3
17.77	2357.0	2306.9
17.78	2330.0	2306.4
17.79	2344.0	2305.9
17.8	2347.0	2305.4
17.81	2335.0	2304.9
17.82	2326.0	2304.5
17.83	2329.0	2304.0
17.84	2327.0	2303.5
17.85	2321.0	2303.0
17.86	2354.0	2302.5
17.87	2386.0	2302.0
17.88	2387.0	2301.5
17.89	2378.0	2301.0
17.9	2377.0	2300.5
17.91	2388.0	2300.0
17.92	2398.0	2299.5
17.93	2399.0	2299.0
17.94	2414.0	2298.5
17.95	2439.0	2298.0
17.96	2444.0	2297.5
17.97	2438.0	2297.0
17.98	2413.0	2296.5
17.99	2433.0	2296.0
18.0	2453.0	2295.5
18.01	2428.0	2295.0
18.02	2436.0	2294.5
18.03	2448.0	2294.0
18.04	2477.0	2293.5
18.05	2484.0	2292.9
18.06	2470.0	2292.4
18.07	2486.0	2291.9
18.08	2476.0	2291.4
18.09	2457.0	2290.9
18.1	2443.0	2290.3
18.11	2482.0	2289.8
18.12	2549.0	2289.3
18.13	2583.0	2288.8
18.14	2561.0	2288.2
18.15	2547.0	2287.7
18.16	2597.0	2287.2
18.17	2611.0	2286.6
18.18	2593.0	2286.1
18.19	2595.0	2285.5
18.2	2590.0	2285.0
18.21	2580.0	2284.5
18.22	2548.0	2283.9
18.23	2541.0	2283.4
18.24	2515.0	2282.8
18.25	2505.0	2282.3
18.26	2530.0	2281.8
18.27	2570.0	2281.2
18.28	2546.0	2280.7
18.29	2494.0	2280.1
18.3	2503.0	2279.6
18.31	2511.0	2279.0
18.32	2512.0	2278.4
18.33	2511.0	2277.9
18.34	2501.0	2277.3
18.35	2561.0	2276.8
18.36	2585.0	2276.2
18.37	2556.0	2275.7
18.38	2566.0	2275.1
18.39	2625.0	2274.5
18.4	2689.0	2274.0
18.41	2680.0	2273.4
18.42	2675.0	2272.8
18.43	2733.0	2272.3
18.44	2789.0	2271.7
18.45	2796.0	2271.1
18.46	2809.0	2270.5
18.47	2867.0	2270.0
18.48	2964.0	2269.4
18.49	3050.0	2268.8
18.5	3160.0	2268.2
18.51	3249.0	2267.7
18.52	3334.0	2267.1
18.53	3455.0	2266.5
18.54	3561.0	2265.9
18.55	3704.0	2265.3
18.56	3895.0	2264.8
18.57	4098.0	2264.2
18.58	4286.0	2263.6
18.59	4548.0	2263.0
18.6	4882.0	2262.4
18.61	5245.0	2261.8
18.62	5554.0	2261.2
18.63	5793.0	2260.6
18.64	6143.0	2260.0
18.65	6540.0	2259.4
18.66	6828.0	2258.8
18.67	7002.0	2258.2
18.68	6940.0	2257.7
18.69	6788.0	2257.1
18.7	6552.0	2256.5
18.71	6216.0	2255.8
18.72	5771.0	2255.2
18.73	5265.0	2254.6
18.74	4823.0	2254.0
18.75	4395.0	2253.4
18.76	4011.0	2252.8
18.77	3664.0	2252.2
18.78	3426.0	2251.6
18.79	3181.0	2251.0
18.8	2908.0	2250.4
18.81	2790.0	2249.8
18.82	2753.0	2249.2
18.83	2655.0	2248.5
18.84	2644.0	2247.9
18.85	2582.0	2247.3
18.86	2543.0	2246.7
18.87	2519.0	2246.1
18.88	2488.0	2245.5
18.89	2427.0	2244.8
18.9	2379.0	2244.2
18.91	2401.0	2243.6
18.92	2428.0	2243.0
18.93	2431.0	2242.3
18.94	2413.0	2241.7
18.95	2397.0	2241.1
18.96	2382.0	2240.5
18.97	2386.0	2239.8
18.98	2383.0	2239.2
18.99	2367.0	2238.6
19.0	2384.0	2237.9
19.01	2367.0	2237.3
19.02	2341.0	2236.7
19.03	2369.0	2236.0
19.04	2416.0	2235.4
19.05	2405.0	2234.8
19.06	2396.0	2234.1
19.07	2384.0	2233.5
19.08	2379.0	2232.9
19.09	2351.0	2232.2
19.1	2311.0	2231.6
19.11	2291.0	2230.9
19.12	2294.0	2230.3
19.13	2315.0	2229.6
19.14	2338.0	2229.0
19.15	2315.0	2228.4
19.16	2276.0	2227.7
19.17	2252.0	2227.1
19.18	2274.0	2226.4
19.19	2357.0	2225.8
19.2	2374.0	2225.1
19.21	2337.0	2224.5
19.22	2268.0	2223.8
19.23	2241.0	2223.2
19.24	2261.0	2222.5
19.25	2290.0	2221.9
19.26	2272.0	2221.2
19.27	2267.0	2220.5
19.28	2288.0	2219.9
19.29	2313.0	2219.2
19.3	2318.0	2218.6
19.31	2305.0	2217.9
19.32	2294.0	2217.3
19.33	2299.0	2216.6
19.34	2289.0	2215.9
19.35	2303.0	2215.3
19.36	2304.0	2214.6
19.37	2273.0	2214.0
19.38	2249.0	2213.3
19.39	2255.0	2212.6
19.4	2284.0	2212.0
19.41	2273.0	2211.3
19.42	2287.0	2210.6
19.43	2284.0	2210.0
19.44	2257.0	2209.3
19.45	2226.0	2208.6
19.46	2250.0	2207.9
19.47	2281.0	2207.3
19.48	2332.0	2206.6
19.49	2320.0	2205.9
19.5	2279.0	2205.3
19.51	2265.0	2204.6
19.52	2287.0	2203.9
19.53	2308.0	2203.2
19.54	2313.0	2202.6
19.55	2248.0	2201.9
19.56	2206.0	2201.2
19.57	2241.0	2200.5
19.58	2271.0	2199.9
19.59	2275.0	2199.2
19.6	2261.0	2198.5
19.61	2264.0	2197.8
19.62	2222.0	2197.1
19.63	2187.0	2196.5
19.64	2217.0	2195.8
19.65	2262.0	2195.1
19.66	2275.0	2194.4
19.67	2277.0	2193.7
19.68	2256.0	2193.0
19.69	2198.0	2192.4
19.7	2201.0	2191.7
19.71	2219.0	2191.0
19.72	2240.0	2190.3
19.73	2211.0	2189.6
19.74	2223.0	2188.9
19.75	2231.0	2188.2
19.76	2227.0	2187.6
19.77	2231.0	2186.9
19.78	2235.0	2186.2
19.79	2252.0	2185.5
19.8	2263.0	2184.8
19.81	2201.0	2184.1
19.82	2209.0	2183.4
19.83	2189.0	2182.7
19.84	2221.0	2182.0
19.85	2235.0	2181.3
19.86	2218.0	2180.6
19.87	2250.0	2179.9
19.88	2230.0	2179.2
19.89	2245.0	2178.5
19.9	2208.0	2177.9
19.91	2145.0	2177.2
19.92	2158.0	2176.5
19.93	2220.0	2175.8
19.94	2243.0	2175.1
19.95	2274.0	2174.4
19.96	2284.0	2173.7
19.97	2230.0	2173.0
19.98	2189.0	2172.3
19.99	2176.0	2171.6
20.0	2226.0	2170.9
20.01	2208.0	2170.2
20.02	2184.0	2169.5
20.03	2210.0	2168.8
20.04	2230.0	2168.1
20.05	2183.0	2167.4
20.06	2157.0	2166.7
20.07	2190.0	2166.0
20.08	2218.0	2165.3
20.09	2205.0	2164.5
20.1	2203.0	2163.8
20.11	2186.0	2163.1
20.12	2215.0	2162.4
20.13	2214.0	2161.7
20.14	2206.0	2161.0
20.15	2228.0	2160.3
20.16	2218.0	2159.6
20.17	2190.0	2158.9
20.18	2183.0	2158.2
20.19	2173.0	2157.5
20.2	2196.0	2156.8
20.21	2201.0	2156.1
20.22	2165.0	2155.4
20.23	2181.0	2154.7
20.24	2178.0	2153.9
20.25	2123.0	2153.2
20.26	2153.0	2152.5
20.27	2221.0	2151.8
20.28	2293.0	2151.1
20.29	2228.0	2150.4
20.3	2182.0	2149.7
20.31	2172.0	2149.0
20.32	2164.0	2148.3
20.33	2183.0	2147.6
20.34	2186.0	2146.8
20.35	2193.0	2146.1
20.36	2176.0	2145.4
20.37	2211.0	2144.7
20.38	2167.0	2144.0
20.39	2154.0	2143.3
20.4	2149.0	2142.6
20.41	2224.0	2141.9
20.42	2240.0	2141.1
20.43	2202.0	2140.4
20.44	2194.0	2139.7
20.45	2187.0	2139.0
20.46	2198.0	2138.3
20.47	2185.0	2137.6
20.48	2177.0	2136.8
20.49	2170.0	2136.1
20.5	2207.0	2135.4
20.51	2215.0	2134.7
20.52	2260.0	2134.0
20.53	2246.0	2133.3
20.54	2260.0	2132.5
20.55	2268.0	2131.8
20.56	2231.0	2131.1
20.57	2239.0	2130.4
20.58	2282.0	2129.7
20.59	2270.0	2129.0
20.6	2264.0	2128.2
20.61	2260.0	2127.5
20.62	2289.0	2126.8
20.63	2324.0	2126.1
20.64	2298.0	2125.4
20.65	2295.0	2124.6
20.66	2287.0	2123.9
20.67	2319.0	2123.2
20.68	2354.0	2122.5
20.69	2372.0	2121.8
20.7	2410.0	2121.0
20.71	2408.0	2120.3
20.72	2423.0	2119.6
20.73	2477.0	2118.9
20.74	2567.0	2118.1
20.75	2644.0	2117.4
20.76	2708.0	2116.7
20.77	2682.0	2116.0
20.78	2708.0	2115.3
20.79	2758.0	2114.5
20.8	2793.0	2113.8
20.81	2809.0	2113.1
20.82	2790.0	2112.4
20.83	2813.0	2111.6
20.84	2789.0	2110.9
20.85	2733.0	2110.2
20.86	2728.0	2109.5
20.87	2690.0	2108.7
20.88	2666.0	2108.0
20.89	2613.0	2107.3
20.9	2550.0	2106.6
20.91	2506.0	2105.8
20.92	2506.0	2105.1
20.93	2512.0	2104.4
20.94	2468.0	2103.7
20.95	2477.0	2102.9
20.96	2509.0	2102.2
20.97	2481.0	2101.5
20.98	2477.0	2100.7
20.99	2455.0	2100.0
21.0	2382.0	2099.3
21.01	2338.0	2098.6
21.02	2337.0	2097.8
21.03	2392.0	2097.1
21.04	2435.0	2096.4
21.05	2447.0	2095.6
21.06	2393.0	2094.9
21.07	2363.0	2094.2
21.08	2348.0	2093.5
21.09	2337.0	2092.7
21.1	2369.0	2092.0
21.11	2392.0	2091.3
21.12	2451.0	2090.5
21.13	2349.0	2089.8
21.14	2317.0	2089.1
21.15	2314.0	2088.3
21.16	2310.0	2087.6
21.17	2273.0	2086.9
21.18	2294.0	2086.2
21.19	2332.0	2085.4
21.2	2337.0	2084.7
21.21	2299.0	2084.0
21.22	2327.0	2083.2
21.23	2352.0	2082.5
21.24	2296.0	2081.8
21.25	2276.0	2081.0
21.26	2284.0	2080.3
21.27	2282.0	2079.6
21.28	2359.0	2078.8
21.29	2342.0	2078.1
21.3	2261.0	2077.4
21.31	2317.0	2076.6
21.32	2312.0	2075.9
21.33	2240.0	2075.2
21.34	2269.0	2074.4
21.35	2289.0	2073.7
21.36	2310.0	2073.0
21.37	2301.0	2072.2
21.38	2295.0	2071.5
21.39	2216.0	2070.8
21.4	2247.0	2070.0
21.41	2240.0	2069.3
21.42	2316.0	2068.5
21.43	2324.0	2067.8
21.44	2271.0	2067.1
21.45	2260.0	2066.3
21.46	2269.0	2065.6
21.47	2243.0	2064.9
21.48	2254.0	2064.1
21.49	2320.0	2063.4
21.5	2279.0	2062.7
21.51	2280.0	2061.9
21.52	2297.0	2061.2
21.53	2286.0	2060.4
21.54	2328.0	2059.7
21.55	2292.0	2059.0
21.56	2288.0	2058.2
21.57	2288.0	2057.5
21.58	2264.0	2056.8
21.59	2272.0	2056.0
21.6	2261.0	2055.3
21.61	2249.0	2054.5
21.62	2255.0	2053.8
21.63	2236.0	2053.1
21.64	2244.0	2052.3
21.65	2275.0	2051.6
21.66	2256.0	2050.8
21.67	2257.0	2050.1
21.68	2268.0	2049.4
21.69	2298.0	2048.6
21.7	2258.0	2047.9
21.71	2295.0	2047.1
21.72	2225.0	2046.4
21.73	2270.0	2045.7
21.74	2291.0	2044.9
21.75	2277.0	2044.2
21.76	2306.0	2043.4
21.77	2236.0	2042.7
21.78	2286.0	2042.0
21.79	2232.0	2041.2
21.8	2281.0	2040.5
21.81	2275.0	2039.7
21.82	2229.0	2039.0
21.83	2248.0	2038.3
21.84	2256.0	2037.5
21.85	2219.0	2036.8
21.86	2174.0	2036.0
21.87	2175.0	2035.3
21.88	2161.0	2034.5
21.89	2220.0	2033.8
21.9	2250.0	2033.1
21.91	2210.0	2032.3
21.92	2197.0	2031.6
21.93	2175.0	2030.8
21.94	2171.0	2030.1
21.95	2228.0	2029.3
21.96	2180.0	2028.6
21.97	2129.0	2027.9
21.98	2166.0	2027.1
21.99	2162.0	2026.4
22.0	2146.0	2025.6
22.01	2150.0	2024.9
22.02	2214.0	2024.1
22.03	2219.0	2023.4
22.04	2246.0	2022.7
22.05	2157.0	2021.9
22.06	2094.0	2021.2
22.07	2137.0	2020.4
22.08	2191.0	2019.7
22.09	2179.0	2018.9
22.1	2124.0	2018.2
22.11	2115.0	2017.4
22.12	2102.0	2016.7
22.13	2096.0	2016.0
22.14	2102.0	2015.2
22.15	2143.0	2014.5
22.16	2135.0	2013.7
22.17	2102.0	2013.0
22.18	2157.0	2012.2
22.19	2106.0	2011.5
22.2	2110.0	2010.7
22.21	2136.0	2010.0
22.22	2066.0	2009.3
22.23	2122.0	2008.5
22.24	2121.0	2007.8
22.25	2140.0	2007.0
22.26	2167.0	2006.3
22.27	2095.0	2005.5
22.28	2100.0	2004.8
22.29	2092.0	2004.0
22.3	2102.0	2003.3
22.31	2074.0	2002.5
22.32	2075.0	2001.8
22.33	2101.0	2001.1
22.34	2121.0	2000.3
22.35	2110.0	1999.6
22.36	2091.0	1998.8
22.37	2084.0	1998.1
22.38	2129.0	1997.3
22.39	2049.0	1996.6
22.4	2089.0	1995.8
22.41	2071.0	1995.1
22.42	2048.0	1994.3
22.43	2104.0	1993.6
22.44	2095.0	1992.8
22.45	2055.0	1992.1
22.46	2070.0	1991.3
22.47	2032.0	1990.6
22.48	2060.0	1989.9
22.49	2074.0	1989.1
22.5	2031.0	1988.4
22.51	2055.0	1987.6
22.52	2073.0	1986.9
22.53	2060.0	1986.1
22.54	2010.0	1985.4
22.55	2000.0	1984.6
22.56	2018.0	1983.9
22.57	2041.0	1983.1
22.58	2098.0	1982.4
22.59	2042.0	1981.6
22.6	2064.0	1980.9
22.61	2039.0	1980.1
22.62	2020.0	1979.4
22.63	2075.0	1978.6
22.64	2018.0	1977.9
22.65	1947.0	1977.2
22.66	1990.0	1976.4
22.67	2044.0	1975.7
22.68	2059.0	1974.9
22.69	2054.0	1974.2
22.7	2012.0	1973.4
22.71	2077.0	1972.7
22.72	2076.0	1971.9
22.73	1992.0	1971.2
22.74	1993.0	1970.4
22.75	2021.0	1969.7
22.76	2039.0	1968.9
22.77	2004.0	1968.2
22.78	2027.0	1967.4
22.79	2041.0	1966.7
22.8	2041.0	1965.9
22.81	2038.0	1965.2
22.82	2044.0	1964.4
22.83	1987.0	1963.7
22.84	2021.0	1962.9
22.85	2026.0	1962.2
22.86	2037.0	1961.5
22.87	2021.0	1960.7
22.88	2047.0	1960.0
22.89	2053.0	1959.2
22.9	1980.0	1958.5
22.91	2020.0	1957.7
22.92	2020.0	1957.0
22.93	2034.0	1956.2
22.94	1994.0	1955.5
22.95	1928.0	1954.7
22.96	1956.0	1954.0
22.97	1976.0	1953.2
22.98	2018.0	1952.5
22.99	2027.0	1951.7
23.0	2014.0	1951.0
23.01	1971.0	1950.2
23.02	1952.0	1949.5
23.03	1952.0	1948.7
23.04	1991.0	1948.0
23.05	2008.0	1947.2
23.06	1986.0	1946.5
23.07	1903.0	1945.7
23.08	1945.0	1945.0
23.09	2008.0	1944.3
23.1	1999.0	1943.5
23.11	1988.0	1942.8
23.12	1995.0	1942.0
23.13	1966.0	1941.3
23.14	1962.0	1940.5
23.15	1999.0	1939.8
23.16	1958.0	1939.0
23.17	1975.0	1938.3
23.18	1992.0	1937.5
23.19	1964.0	1936.8
23.2	2016.0	1936.0
23.21	2004.0	1935.3
23.22	2014.0	1934.5
23.23	2051.0	1933.8
23.24	2002.0	1933.0
23.25	1969.0	1932.3
23.26	1974.0	1931.5
23.27	1959.0	1930.8
23.28	1930.0	1930.1
23.29	1948.0	1929.3
23.3	1976.0	1928.6
23.31	2021.0	1927.8
23.32	2024.0	1927.1
23.33	2021.0	1926.3
23.34	2063.0	1925.6
23.35	2034.0	1924.8
23.36	1981.0	1924.1
23.37	1947.0	1923.3
23.38	1949.0	1922.6
23.39	1975.0	1921.8
23.4	1998.0	1921.1
23.41	2005.0	1920.3
23.42	1979.0	1919.6
23.43	1971.0	1918.8
23.44	2040.0	1918.1
23.45	1956.0	1917.4
23.46	1945.0	1916.6
23.47	2017.0	1915.9
23.48	1975.0	1915.1
23.49	1972.0	1914.4
23.5	1920.0	1913.6
23.51	1937.0	1912.9
23.52	1962.0	1912.1
23.53	2035.0	1911.4
23.54	2015.0	1910.6
23.55	2049.0	1909.9
23.56	2008.0	1909.2
23.57	1948.0	1908.4
23.58	2000.0	1907.7
23.59	1986.0	1906.9
23.6	1988.0	1906.2
23.61	2003.0	1905.4
23.62	2001.0	1904.7
23.63	2011.0	1903.9
23.64	2025.0	1903.2
23.65	1999.0	1902.4
23.66	1995.0	1901.7
23.67	1981.0	1901.0
23.68	1937.0	1900.2
23.69	1955.0	1899.5
23.7	1973.0	1898.7
23.71	2036.0	1898.0
23.72	1958.0	1897.2
23.73	1974.0	1896.5
23.74	1963.0	1895.7
23.75	1928.0	1895.0
23.76	1930.0	1894.3
23.77	1946.0	1893.5
23.78	1983.0	1892.8
23.79	1977.0	1892.0
23.8	1922.0	1891.3
23.81	1907.0	1890.5
23.82	2009.0	1889.8
23.83	1978.0	1889.1
23.84	1981.0	1888.3
23.85	1962.0	1887.6
23.86	1928.0	1886.8
23.87	1959.0	1886.1
23.88	1941.0	1885.3
23.89	1921.0	1884.6
23.9	2001.0	1883.9
23.91	1956.0	1883.1
23.92	1935.0	1882.4
23.93	2001.0	1881.6
23.94	2001.0	1880.9
23.95	1947.0	1880.1
23.96	1931.0	1879.4
23.97	1956.0	1878.7
23.98	1953.0	1877.9
23.99	1938.0	1877.2
24.0	1976.0	1876.4
24.01	2016.0	1875.7
24.02	1987.0	1874.9
24.03	1971.0	1874.2
24.04	1914.0	1873.5
24.05	1902.0	1872.7
24.06	1964.0	1872.0
24.07	1979.0	1871.2
24.08	1986.0	1870.5
24.09	2048.0	1869.8
24.1	1988.0	1869.0
24.11	1930.0	1868.3
24.12	1945.0	1867.5
24.13	1991.0	1866.8
24.14	2032.0	1866.1
24.15	1993.0	1865.3
24.16	1977.0	1864.6
24.17	2006.0	1863.8
24.18	2078.0	1863.1
24.19	2066.0	1862.4
24.2	2005.0	1861.6
24.21	2002.0	1860.9
24.22	2054.0	1860.2
24.23	2062.0	1859.4
24.24	2043.0	1858.7
24.25	2036.0	1857.9
24.26	2029.0	1857.2
24.27	2021.0	1856.5
24.28	1992.0	1855.7
24.29	1978.0	1855.0
24.3	2009.0	1854.2
24.31	2015.0	1853.5
24.32	1999.0	1852.8
24.33	1987.0	1852.0
24.34	2048.0	1851.3
24.35	2061.0	1850.6
24.36	2020.0	1849.8
24.37	1981.0	1849.1
24.38	1976.0	1848.4
24.39	2009.0	1847.6
24.4	2043.0	1846.9
24.41	2016.0	1846.1
24.42	2004.0	1845.4
24.43	2001.0	1844.7
24.44	2022.0	1843.9
24.45	2022.0	1843.2
24.46	2011.0	1842.5
24.47	2031.0	1841.7
24.48	2070.0	1841.0
24.49	2044.0	1840.3
24.5	2000.0	1839.5
24.51	2033.0	1838.8
24.52	2069.0	1838.1
24.53	1997.0	1837.3
24.54	2070.0	1836.6
24.55	2093.0	1835.9
24.56	2099.0	1835.1
24.57	2106.0	1834.4
24.58	2127.0	1833.7
24.59	2116.0	1832.9
24.6	2101.0	1832.2
24.61	2105.0	1831.5
24.62	2141.0	1830.7
24.63	2219.0	1830.0
24.64	2222.0	1829.3
24.65	2205.0	1828.5
24.66	2229.0	1827.8
24.67	2261.0	1827.1
24.68	2271.0	1826.3
24.69	2318.0	1825.6
24.7	2410.0	1824.9
24.71	2430.0	1824.2
24.72	2477.0	1823.4
24.73	2578.0	1822.7
24.74	2625.0	1822.0
24.75	2637.0	1821.2
24.76	2681.0	1820.5
24.77	2778.0	1819.8
24.78	2846.0	1819.0
24.79	2911.0	1818.3
24.8	2925.0	1817.6
24.81	2871.0	1816.9
24.82	2852.0	1816.1
24.83	2854.0	1815.4
24.84	2797.0	1814.7
24.85	2761.0	1814.0
24.86	2723.0	1813.2
24.87	2721.0	1812.5
24.88	2650.0	1811.8
24.89	2511.0	1811.0
24.9	2396.0	1810.3
24.91	2386.0	1809.6
24.92	2337.0	1808.9
24.93	2305.0	1808.1
24.94	2230.0	1807.4
24.95	2214.0	1806.7
24.96	2180.0	1806.0
24.97	2076.0	1805.2
24.98	2080.0	1804.5
24.99	2071.0	1803.8
25.0	2065.0	1803.1
25.01	2019.0	1802.3
25.02	1993.0	1801.6
25.03	2005.0	1800.9
25.04	2006.0	1800.2
25.05	1971.0	1799.4
25.06	1935.0	1798.7
25.07	1952.0	1798.0
25.08	1967.0	1797.3
25.09	1929.0	1796.6
25.1	1933.0	1795.8
25.11	1929.0	1795.1
25.12	1912.0	1794.4
25.13	1894.0	1793.7
25.14	1932.0	1793.0
25.15	1976.0	1792.2
25.16	1933.0	1791.5
25.17	1887.0	1790.8
25.18	1913.0	1790.1
25.19	1920.0	1789.3
25.2	1927.0	1788.6
25.21	1920.0	1787.9
25.22	1898.0	1787.2
25.23	1891.0	1786.5
25.24	1902.0	1785.8
25.25	1889.0	1785.0
25.26	1894.0	1784.3
25.27	1893.0	1783.6
25.28	1863.0	1782.9
25.29	1829.0	1782.2
25.3	1816.0	1781.4
25.31	1862.0	1780.7
25.32	1879.0	1780.0
25.33	1832.0	1779.3
25.34	1850.0	1778.6
25.35	1860.0	1777.9
25.36	1835.0	1777.2
25.37	1834.0	1776.4
25.38	1849.0	1775.7
25.39	1838.0	1775.0
25.4	1837.0	1774.3
25.41	1838.0	1773.6
25.42	1806.0	1772.9
25.43	1795.0	1772.2
25.44	1806.0	1771.4
25.45	1800.0	1770.7
25.46	1826.0	1770.0
25.47	1867.0	1769.3
25.48	1863.0	1768.6
25.49	1854.0	1767.9
25.5	1856.0	1767.2
25.51	1839.0	1766.5
25.52	1806.0	1765.7
25.53	1811.0	1765.0
25.54	1804.0	1764.3
25.55	1789.0	1763.6
25.56	1776.0	1762.9
25.57	1784.0	1762.2
25.58	1778.0	1761.5
25.59	1753.0	1760.8
25.6	1765.0	1760.1
25.61	1757.0	1759.4
25.62	1748.0	1758.6
25.63	1725.0	1757.9
25.64	1758.0	1757.2
25.65	1799.0	1756.5
25.66	1786.0	1755.8
25.67	1760.0	1755.1
25.68	1766.0	1754.4
25.69	1758.0	1753.7
25.7	1740.0	1753.0
25.71	1743.0	1752.3
25.72	1750.0	1751.6
25.73	1769.0	1750.9
25.74	1756.0	1750.2
25.75	1779.0	1749.5
25.76	1783.0	1748.8
25.77	1768.0	1748.1
25.78	1797.0	1747.4
25.79	1811.0	1746.7
25.8	1781.0	1746.0
25.81	1759.0	1745.3
25.82	1757.0	1744.6
25.83	1758.0	1743.8
25.84	1776.0	1743.1
25.85	1753.0	1742.4
25.86	1747.0	1741.7
25.87	1760.0	1741.0
25.88	1757.0	1740.3
25.89	1744.0	1739.6
25.9	1730.0	1738.9
25.91	1722.0	1738.2
25.92	1726.0	1737.5
25.93	1717.0	1736.8
25.94	1722.0	1736.2
25.95	1732.0	1735.5
25.96	1760.0	1734.8
25.97	1772.0	1734.1
25.98	1778.0	1733.4
25.99	1724.0	1732.7
26.0	1734.0	1732.0
26.01	1772.0	1731.3
26.02	1810.0	1730.6
26.03	1770.0	1729.9
26.04	1750.0	1729.2
26.05	1782.0	1728.5
26.06	1763.0	1727.8
26.07	1736.0	1727.1
26.08	1752.0	1726.4
26.09	1728.0	1725.7
26.1	1724.0	1725.0
26.11	1755.0	1724.3
26.12	1740.0	1723.6
26.13	1742.0	1722.9
26.14	1772.0	1722.3
26.15	1790.0	1721.6
26.16	1777.0	1720.9
26.17	1765.0	1720.2
26.18	1753.0	1719.5
26.19	1745.0	1718.8
26.2	1714.0	1718.1
26.21	1711.0	1717.4
26.22	1735.0	1716.7
26.23	1746.0	1716.1
26.24	1756.0	1715.4
26.25	1738.0	1714.7
26.26	1733.0	1714.0
26.27	1730.0	1713.3
26.28	1707.0	1712.6
26.29	1701.0	1711.9
26.3	1733.0	1711.2
26.31	1754.0	1710.6
26.32	1750.0	1709.9
26.33	1722.0	1709.2
26.34	1707.0	1708.5
26.35	1730.0	1707.8
26.36	1732.0	1707.1
26.37	1732.0	1706.5
26.38	1744.0	1705.8
26.39	1742.0	1705.1
26.4	1771.0	1704.4
26.41	1775.0	1703.7
26.42	1770.0	1703.0
26.43	1732.0	1702.4
26.44	1701.0	1701.7
26.45	1707.0	1701.0
26.46	1685.0	1700.3
26.47	1691.0	1699.6
26.48	1683.0	1699.0
26.49	1669.0	1698.3
26.5	1670.0	1697.6
26.51	1685.0	1696.9
26.52	1679.0	1696.3
26.53	1674.0	1695.6
26.54	1680.0	1694.9
26.55	1706.0	1694.2
26.56	1716.0	1693.6
26.57	1685.0	1692.9
26.58	1674.0	1692.2
26.59	1696.0	1691.5
26.6	1711.0	1690.9
26.61	1709.0	1690.2
26.62	1693.0	1689.5
26.63	1712.0	1688.8
26.64	1710.0	1688.2
26.65	1690.0	1687.5
26.66	1698.0	1686.8
26.67	1693.0	1686.1
26.68	1655.0	1685.5
26.69	1673.0	1684.8
26.7	1672.0	1684.1
26.71	1651.0	1683.5
26.72	1690.0	1682.8
26.73	1717.0	1682.1
26.74	1706.0	1681.5
26.75	1689.0	1680.8
26.76	1663.0	1680.1
26.77	1672.0	1679.5
26.78	1686.0	1678.8
26.79	1676.0	1678.1
26.8	1673.0	1677.5
26.81	1670.0	1676.8
26.82	1678.0	1676.1
26.83	1674.0	1675.5
26.84	1637.0	1674.8
26.85	1634.0	1674.1
26.86	1647.0	1673.5
26.87	1664.0	1672.8
26.88	1658.0	1672.1
26.89	1655.0	1671.5
26.9	1677.0	1670.8
26.91	1679.0	1670.2
26.92	1691.0	1669.5
26.93	1699.0	1668.8
26.94	1672.0	1668.2
26.95	1642.0	1667.5
26.96	1640.0	1666.9
26.97	1658.0	1666.2
26.98	1677.0	1665.5
26.99	1677.0	1664.9
27.0	1657.0	1664.2
27.01	1635.0	1663.6
27.02	1656.0	1662.9
27.03	1666.0	1662.3
27.04	1666.0	1661.6
27.05	1677.0	1660.9
27.06	1671.0	1660.3
27.07	1675.0	1659.6
27.08	1677.0	1659.0
27.09	1667.0	1658.3
27.1	1657.0	1657.7
27.11	1656.0	1657.0
27.12	1663.0	1656.4
27.13	1655.0	1655.7
27.14	1634.0	1655.1
27.15	1623.0	1654.4
27.16	1635.0	1653.8
27.17	1677.0	1653.1
27.18	1732.0	1652.5
27.19	1743.0	1651.8
27.2	1707.0	1651.2
27.21	1683.0	1650.5
27.22	1688.0	1649.9
27.23	1662.0	1649.2
27.24	1631.0	1648.6
27.25	1652.0	1647.9
27.26	1670.0	1647.3
27.27	1678.0	1646.7
27.28	1696.0	1646.0
27.29	1703.0	1645.4
27.3	1703.0	1644.7
27.31	1701.0	1644.1
27.32	1669.0	1643.4
27.33	1641.0	1642.8
27.34	1645.0	1642.2
27.35	1636.0	1641.5
27.36	1631.0	1640.9
27.37	1634.0	1640.2
27.38	1629.0	1639.6
27.39	1635.0	1639.0
27.4	1636.0	1638.3
27.41	1612.0	1637.7
27.42	1611.0	1637.0
27.43	1642.0	1636.4
27.44	1637.0	1635.8
27.45	1602.0	1635.1
27.46	1593.0	1634.5
27.47	1630.0	1633.9
27.48	1649.0	1633.2
27.49	1634.0	1632.6
27.5	1638.0	1632.0
27.51	1654.0	1631.3
27.52	1652.0	1630.7
27.53	1666.0	1630.1
27.54	1664.0	1629.4
27.55	1623.0	1628.8
27.56	1627.0	1628.2
27.57	1648.0	1627.5
27.58	1656.0	1626.9
27.59	1662.0	1626.3
27.6	1635.0	1625.6
27.61	1621.0	1625.0
27.62	1647.0	1624.4
27.63	1669.0	1623.8
27.64	1667.0	1623.1
27.65	1647.0	1622.5
27.66	1633.0	1621.9
27.67	1620.0	1621.3
27.68	1603.0	1620.6
27.69	1621.0	1620.0
27.7	1651.0	1619.4
27.71	1646.0	1618.8
27.72	1622.0	1618.1
27.73	1630.0	1617.5
27.74	1642.0	1616.9
27.75	1643.0	1616.3
27.76	1649.0	1615.7
27.77	1679.0	1615.0
27.78	1682.0	1614.4
27.79	1686.0	1613.8
27.8	1656.0	1613.2
27.81	1596.0	1612.6
27.82	1618.0	1611.9
27.83	1647.0	1611.3
27.84	1657.0	1610.7
27.85	1637.0	1610.1
27.86	1588.0	1609.5
27.87	1596.0	1608.9
27.88	1630.0	1608.3
27.89	1658.0	1607.6
27.9	1661.0	1607.0
27.91	1640.0	1606.4
27.92	1622.0	1605.8
27.93	1642.0	1605.2
27.94	1658.0	1604.6
27.95	1623.0	1604.0
27.96	1596.0	1603.4
27.97	1624.0	1602.8
27.98	1622.0	1602.1
27.99	1601.0	1601.5
28.0	1616.0	1600.9
28.01	1617.0	1600.3
28.02	1615.0	1599.7
28.03	1624.0	1599.1
28.04	1604.0	1598.5
28.05	1612.0	1597.9
28.06	1622.0	1597.3
28.07	1606.0	1596.7
28.08	1598.0	1596.1
28.09	1588.0	1595.5
28.1	1617.0	1594.9
28.11	1623.0	1594.3
28.12	1609.0	1593.7
28.13	1610.0	1593.1
28.14	1619.0	1592.5
28.15	1600.0	1591.9
28.16	1573.0	1591.3
28.17	1591.0	1590.7
28.18	1615.0	1590.1
28.19	1613.0	1589.5
28.2	1609.0	1588.9
28.21	1601.0	1588.3
28.22	1585.0	1587.7
28.23	1614.0	1587.1
28.24	1632.0	1586.5
28.25	1615.0	1585.9
28.26	1598.0	1585.3
28.27	1611.0	1584.7
28.28	1627.0	1584.1
28.29	1626.0	1583.6
28.3	1623.0	1583.0
28.31	1627.0	1582.4
28.32	1641.0	1581.8
28.33	1637.0	1581.2
28.34	1596.0	1580.6
28.35	1596.0	1580.0
28.36	1607.0	1579.4
28.37	1559.0	1578.9
28.38	1539.0	1578.3
28.39	1549.0	1577.7
28.4	1586.0	1577.1
28.41	1618.0	1576.5
28.42	1635.0	1575.9
28.43	1639.0	1575.3
28.44	1609.0	1574.8
28.45	1573.0	1574.2
28.46	1564.0	1573.6
28.47	1588.0	1573.0
28.48	1608.0	1572.4
28.49	1606.0	1571.9
28.5	1613.0	1571.3
28.51	1576.0	1570.7
28.52	1543.0	1570.1
28.53	1591.0	1569.5
28.54	1617.0	1569.0
28.55	1616.0	1568.4
28.56	1587.0	1567.8
28.57	1568.0	1567.2
28.58	1584.0	1566.7
28.59	1598.0	1566.1
28.6	1613.0	1565.5
28.61	1625.0	1565.0
28.62	1624.0	1564.4
28.63	1612.0	1563.8
28.64	1591.0	1563.2
28.65	1593.0	1562.7
28.66	1620.0	1562.1
28.67	1637.0	1561.5
28.68	1631.0	1561.0
28.69	1602.0	1560.4
28.7	1592.0	1559.8
28.71	1587.0	1559.3
28.72	1575.0	1558.7
28.73	1572.0	1558.1
28.74	1571.0	1557.6
28.75	1550.0	1557.0
28.76	1548.0	1556.4
28.77	1579.0	1555.9
28.78	1604.0	1555.3
28.79	1568.0	1554.8
28.8	1564.0	1554.2
28.81	1554.0	1553.6
28.82	1553.0	1553.1
28.83	1530.0	1552.5
28.84	1559.0	1552.0
28.85	1575.0	1551.4
28.86	1571.0	1550.8
28.87	1592.0	1550.3
28.88	1581.0	1549.7
28.89	1554.0	1549.2
28.9	1548.0	1548.6
28.91	1583.0	1548.1
28.92	1559.0	1547.5
28.93	1515.0	1547.0
28.94	1481.0	1546.4
28.95	1491.0	1545.9
28.96	1534.0	1545.3
28.97	1549.0	1544.8
28.98	1559.0	1544.2
28.99	1545.0	1543.7
29.0	1577.0	1543.1
29.01	1584.0	1542.6
29.02	1548.0	1542.0
29.03	1533.0	1541.5
29.04	1512.0	1540.9
29.05	1530.0	1540.4
29.06	1533.0	1539.8
29.07	1527.0	1539.3
29.08	1528.0	1538.7
29.09	1530.0	1538.2
29.1	1560.0	1537.7
29.11	1566.0	1537.1
29.12	1562.0	1536.6
29.13	1576.0	1536.0
29.14	1553.0	1535.5
29.15	1554.0	1534.9
29.16	1553.0	1534.4
29.17	1543.0	1533.9
29.18	1551.0	1533.3
29.19	1530.0	1532.8
29.2	1492.0	1532.3
29.21	1512.0	1531.7
29.22	1547.0	1531.2
29.23	1530.0	1530.7
29.24	1526.0	1530.1
29.25	1508.0	1529.6
29.26	1498.0	1529.1
29.27	1515.0	1528.5
29.28	1549.0	1528.0
29.29	1571.0	1527.5
29.3	1591.0	1526.9
29.31	1605.0	1526.4
29.32	1554.0	1525.9
29.33	1533.0	1525.3
29.34	1541.0	1524.8
29.35	1533.0	1524.3
29.36	1516.0	1523.8
29.37	1506.0	1523.2
29.38	1527.0	1522.7
29.39	1518.0	1522.2
29.4	1549.0	1521.7
29.41	1540.0	1521.1
29.42	1539.0	1520.6
29.43	1555.0	1520.1
29.44	1561.0	1519.6
29.45	1555.0	1519.1
29.46	1519.0	1518.5
29.47	1510.0	1518.0
29.48	1537.0	1517.5
29.49	1530.0	1517.0
29.5	1541.0	1516.5
29.51	1533.0	1515.9
29.52	1503.0	1515.4
29.53	1542.0	1514.9
29.54	1539.0	1514.4
29.55	1521.0	1513.9
29.56	1536.0	1513.4
29.57	1511.0	1512.9
29.58	1519.0	1512.3
29.59	1515.0	1511.8
29.6	1540.0	1511.3
29.61	1535.0	1510.8
29.62	1520.0	1510.3
29.63	1532.0	1509.8
29.64	1520.0	1509.3
29.65	1522.0	1508.8
29.66	1522.0	1508.3
29.67	1511.0	1507.8
29.68	1528.0	1507.3
29.69	1579.0	1506.8
29.7	1586.0	1506.3
29.71	1573.0	1505.8
29.72	1547.0	1505.2
29.73	1534.0	1504.7
29.74	1536.0	1504.2
29.75	1552.0	1503.7
29.76	1541.0	1503.2
29.77	1487.0	1502.7
29.78	1472.0	1502.2
29.79	1492.0	1501.7
29.8	1508.0	1501.2
29.81	1512.0	1500.7
29.82	1501.0	1500.3
29.83	1517.0	1499.8
29.84	1526.0	1499.3
29.85	1518.0	1498.8
29.86	1529.0	1498.3
29.87	1553.0	1497.8
29.88	1533.0	1497.3
29.89	1490.0	1496.8
29.9	1478.0	1496.3
29.91	1462.0	1495.8
29.92	1491.0	1495.3
29.93	1497.0	1494.8
29.94	1470.0	1494.3
29.95	1494.0	1493.9
29.96	1501.0	1493.4
29.97	1515.0	1492.9
29.98	1497.0	1492.4
29.99	1510.0	1491.9
30.0	1491.0	1491.4
30.01	1500.0	1490.9
30.02	1502.0	1490.5
30.03	1469.0	1490.0
30.04	1482.0	1489.5
30.05	1483.0	1489.0
30.06	1475.0	1488.5
30.07	1482.0	1488.1
30.08	1474.0	1487.6
30.09	1443.0	1487.1
30.1	1480.0	1486.6
30.11	1517.0	1486.1
30.12	1546.0	1485.7
30.13	1496.0	1485.2
30.14	1471.0	1484.7
30.15	1487.0	1484.2
30.16	1486.0	1483.8
30.17	1487.0	1483.3
30.18	1484.0	1482.8
30.19	1485.0	1482.4
30.2	1478.0	1481.9
30.21	1482.0	1481.4
30.22	1520.0	1480.9
30.23	1501.0	1480.5
30.24	1505.0	1480.0
30.25	1530.0	1479.5
30.26	1483.0	1479.1
30.27	1466.0	1478.6
30.28	1493.0	1478.1
30.29	1510.0	1477.7
30.3	1478.0	1477.2
30.31	1468.0	1476.7
30.32	1483.0	1476.3
30.33	1468.0	1475.8
30.34	1468.0	1475.4
30.35	1486.0	1474.9
30.36	1483.0	1474.4
30.37	1481.0	1474.0
30.38	1485.0	1473.5
30.39	1494.0	1473.1
30.4	1510.0	1472.6
30.41	1518.0	1472.1
30.42	1507.0	1471.7
30.43	1492.0	1471.2
30.44	1480.0	1470.8
30.45	1511.0	1470.3
30.46	1479.0	1469.9
30.47	1532.0	1469.4
30.48	1509.0	1469.0
30.49	1536.0	1468.5
30.5	1559.0	1468.1
30.51	1517.0	1467.6
30.52	1482.0	1467.2
30.53	1488.0	1466.7
30.54	1479.0	1466.3
30.55	1488.0	1465.8
30.56	1529.0	1465.4
30.57	1511.0	1464.9
30.58	1470.0	1464.5
30.59	1491.0	1464.0
30.6	1501.0	1463.6
30.61	1510.0	1463.2
30.62	1532.0	1462.7
30.63	1509.0	1462.3
30.64	1506.0	1461.8
30.65	1518.0	1461.4
30.66	1520.0	1461.0
30.67	1465.0	1460.5
30.68	1501.0	1460.1
30.69	1480.0	1459.6
30.7	1482.0	1459.2
30.71	1455.0	1458.8
30.72	1499.0	1458.3
30.73	1530.0	1457.9
30.74	1503.0	1457.5
30.75	1458.0	1457.0
30.76	1466.0	1456.6
30.77	1471.0	1456.2
30.78	1447.0	1455.7
30.79	1468.0	1455.3
30.8	1471.0	1454.9
30.81	1467.0	1454.5
30.82	1487.0	1454.0
30.83	1496.0	1453.6
30.84	1476.0	1453.2
30.85	1477.0	1452.7
30.86	1475.0	1452.3
30.87	1488.0	1451.9
30.88	1497.0	1451.5
30.89	1503.0	1451.0
30.9	1469.0	1450.6
30.91	1519.0	1450.2
30.92	1460.0	1449.8
30.93	1456.0	1449.4
30.94	1458.0	1448.9
30.95	1484.0	1448.5
30.96	1504.0	1448.1
30.97	1468.0	1447.7
30.98	1464.0	1447.3
30.99	1442.0	1446.9
31.0	1485.0	1446.4
31.01	1494.0	1446.0
31.02	1464.0	1445.6
31.03	1451.0	1445.2
31.04	1461.0	1444.8
31.05	1481.0	1444.4
31.06	1478.0	1444.0
31.07	1493.0	1443.6
31.08	1502.0	1443.2
31.09	1469.0	1442.7
31.1	1457.0	1442.3
31.11	1473.0	1441.9
31.12	1468.0	1441.5
31.13	1476.0	1441.1
31.14	1498.0	1440.7
31.15	1521.0	1440.3
31.16	1491.0	1439.9
31.17	1501.0	1439.5
31.18	1505.0	1439.1
31.19	1504.0	1438.7
31.2	1473.0	1438.3
31.21	1465.0	1437.9
31.22	1444.0	1437.5
31.23	1411.0	1437.1
31.24	1454.0	1436.7
31.25	1404.0	1436.3
31.26	1476.0	1435.9
31.27	1491.0	1435.5
31.28	1453.0	1435.1
31.29	1466.0	1434.7
31.3	1417.0	1434.3
31.31	1425.0	1433.9
31.32	1449.0	1433.5
31.33	1489.0	1433.2
31.34	1457.0	1432.8
31.35	1457.0	1432.4
31.36	1488.0	1432.0
31.37	1450.0	1431.6
31.38	1431.0	1431.2
31.39	1414.0	1430.8
31.4	1449.0	1430.4
31.41	1478.0	1430.1
31.42	1469.0	1429.7
31.43	1448.0	1429.3
31.44	1417.0	1428.9
31.45	1395.0	1428.5
31.46	1469.0	1428.1
31.47	1532.0	1427.8
31.48	1496.0	1427.4
31.49	1461.0	1427.0
31.5	1437.0	1426.6
31.51	1503.0	1426.2
31.52	1465.0	1425.9
31.53	1504.0	1425.5
31.54	1436.0	1425.1
31.55	1391.0	1424.7
31.56	1399.0	1424.4
31.57	1450.0	1424.0
31.58	1465.0	1423.6
31.59	1427.0	1423.3
31.6	1415.0	1422.9
31.61	1420.0	1422.5
31.62	1433.0	1422.1
31.63	1472.0	1421.8
31.64	1493.0	1421.4
31.65	1476.0	1421.0
31.66	1465.0	1420.7
31.67	1431.0	1420.3
31.68	1477.0	1419.9
31.69	1475.0	1419.6
31.7	1440.0	1419.2
31.71	1448.0	1418.9
31.72	1460.0	1418.5
31.73	1467.0	1418.1
31.74	1492.0	1417.8
31.75	1510.0	1417.4
31.76	1494.0	1417.1
31.77	1496.0	1416.7
31.78	1495.0	1416.3
31.79	1453.0	1416.0
31.8	1471.0	1415.6
31.81	1467.0	1415.3
31.82	1451.0	1414.9
31.83	1489.0	1414.6
31.84	1487.0	1414.2
31.85	1504.0	1413.9
31.86	1472.0	1413.5
31.87	1454.0	1413.2
31.88	1439.0	1412.8
31.89	1435.0	1412.5
31.9	1460.0	1412.1
31.91	1486.0	1411.8
31.92	1461.0	1411.4
31.93	1472.0	1411.1
31.94	1409.0	1410.7
31.95	1399.0	1410.4
31.96	1464.0	1410.0
31.97	1471.0	1409.7
31.98	1419.0	1409.4
31.99	1462.0	1409.0
32.0	1472.0	1408.7
32.01	1441.0	1408.3
32.02	1425.0	1408.0
32.03	1440.0	1407.7
32.04	1504.0	1407.3
32.05	1443.0	1407.0
32.06	1407.0	1406.7
32.07	1420.0	1406.3
32.08	1422.0	1406.0
32.09	1435.0	1405.7
32.1	1444.0	1405.3
32.11	1441.0	1405.0
32.12	1400.0	1404.7
32.13	1409.0	1404.3
32.14	1478.0	1404.0
32.15	1508.0	1403.7
32.16	1481.0	1403.3
32.17	1386.0	1403.0
32.18	1409.0	1402.7
32.19	1406.0	1402.4
32.2	1411.0	1402.0
32.21	1491.0	1401.7
32.22	1482.0	1401.4
32.23	1454.0	1401.1
32.24	1404.0	1400.8
32.25	1450.0	1400.4
32.26	1433.0	1400.1
32.27	1416.0	1399.8
32.28	1432.0	1399.5
32.29	1455.0	1399.2
32.3	1451.0	1398.8
32.31	1475.0	1398.5
32.32	1478.0	1398.2
32.33	1411.0	1397.9
32.34	1452.0	1397.6
32.35	1449.0	1397.3
32.36	1370.0	1397.0
32.37	1406.0	1396.6
32.38	1404.0	1396.3
32.39	1448.0	1396.0
32.4	1434.0	1395.7
32.41	1427.0	1395.4
32.42	1413.0	1395.1
32.43	1403.0	1394.8
32.44	1450.0	1394.5
32.45	1449.0	1394.2
32.46	1448.0	1393.9
32.47	1431.0	1393.6
32.48	1447.0	1393.3
32.49	1433.0	1393.0
32.5	1423.0	1392.7
32.51	1417.0	1392.4
32.52	1442.0	1392.1
32.53	1474.0	1391.8
32.54	1486.0	1391.5
32.55	1457.0	1391.2
32.56	1454.0	1390.9
32.57	1458.0	1390.6
32.58	1465.0	1390.3
32.59	1432.0	1390.0
32.6	1442.0	1389.7
32.61	1490.0	1389.4
32.62	1490.0	1389.1
32.63	1446.0	1388.8
32.64	1414.0	1388.6
32.65	1398.0	1388.3
32.66	1391.0	1388.0
32.67	1421.0	1387.7
32.68	1412.0	1387.4
32.69	1450.0	1387.1
32.7	1488.0	1386.8
32.71	1485.0	1386.6
32.72	1435.0	1386.3
32.73	1369.0	1386.0
32.74	1413.0	1385.7
32.75	1395.0	1385.4
32.76	1452.0	1385.1
32.77	1458.0	1384.9
32.78	1458.0	1384.6
32.79	1479.0	1384.3
32.8	1419.0	1384.0
32.81	1400.0	1383.8
32.82	1391.0	1383.5
32.83	1381.0	1383.2
32.84	1403.0	1382.9
32.85	1474.0	1382.7
32.86	1485.0	1382.4
32.87	1478.0	1382.1
32.88	1468.0	1381.9
32.89	1438.0	1381.6
32.9	1449.0	1381.3
32.91	1441.0	1381.1
32.92	1470.0	1380.8
32.93	1483.0	1380.5
32.94	1420.0	1380.3
32.95	1409.0	1380.0
32.96	1458.0	1379.7
32.97	1442.0	1379.5
32.98	1432.0	1379.2
32.99	1421.0	1378.9
33.0	1412.0	1378.7
33.01	1414.0	1378.4
33.02	1428.0	1378.2
33.03	1445.0	1377.9
33.04	1445.0	1377.7
33.05	1442.0	1377.4
33.06	1467.0	1377.1
33.07	1475.0	1376.9
33.08	1456.0	1376.6
33.09	1441.0	1376.4
33.1	1467.0	1376.1
33.11	1508.0	1375.9
33.12	1462.0	1375.6
33.13	1429.0	1375.4
33.14	1451.0	1375.1
33.15	1480.0	1374.9
33.16	1452.0	1374.6
33.17	1442.0	1374.4
33.18	1473.0	1374.1
33.19	1461.0	1373.9
33.2	1399.0	1373.7
33.21	1391.0	1373.4
33.22	1411.0	1373.2
33.23	1405.0	1372.9
33.24	1437.0	1372.7
33.25	1451.0	1372.5
33.26	1436.0	1372.2
33.27	1395.0	1372.0
33.28	1394.0	1371.7
33.29	1432.0	1371.5
33.3	1471.0	1371.3
33.31	1457.0	1371.0
33.32	1437.0	1370.8
33.33	1393.0	1370.6
33.34	1378.0	1370.3
33.35	1426.0	1370.1
33.36	1412.0	1369.9
33.37	1390.0	1369.7
33.38	1396.0	1369.4
33.39	1389.0	1369.2
33.4	1407.0	1369.0
33.41	1435.0	1368.8
33.42	1451.0	1368.5
33.43	1431.0	1368.3
33.44	1439.0	1368.1
33.45	1423.0	1367.9
33.46	1404.0	1367.6
33.47	1411.0	1367.4
33.48	1429.0	1367.2
33.49	1430.0	1367.0
33.5	1381.0	1366.8
33.51	1395.0	1366.5
33.52	1420.0	1366.3
33.53	1402.0	1366.1
33.54	1362.0	1365.9
33.55	1347.0	1365.7
33.56	1421.0	1365.5
33.57	1473.0	1365.3
33.58	1422.0	1365.1
33.59	1461.0	1364.8
33.6	1456.0	1364.6
33.61	1469.0	1364.4
33.62	1463.0	1364.2
33.63	1437.0	1364.0
33.64	1406.0	1363.8
33.65	1385.0	1363.6
33.66	1370.0	1363.4
33.67	1420.0	1363.2
33.68	1459.0	1363.0
33.69	1447.0	1362.8
33.7	1395.0	1362.6
33.71	1389.0	1362.4
33.72	1402.0	1362.2
33.73	1434.0	1362.0
33.74	1432.0	1361.8
33.75	1438.0	1361.6
33.76	1398.0	1361.4
33.77	1377.0	1361.2
33.78	1439.0	1361.0
33.79	1438.0	1360.8
33.8	1425.0	1360.6
33.81	1390.0	1360.4
33.82	1435.0	1360.3
33.83	1422.0	1360.1
33.84	1388.0	1359.9
33.85	1419.0	1359.7
33.86	1392.0	1359.5
33.87	1395.0	1359.3
33.88	1394.0	1359.1
33.89	1394.0	1358.9
33.9	1389.0	1358.8
33.91	1389.0	1358.6
33.92	1358.0	1358.4
33.93	1334.0	1358.2
33.94	1399.0	1358.0
33.95	1419.0	1357.9
33.96	1433.0	1357.7
33.97	1419.0	1357.5
33.98	1383.0	1357.3
33.99	1417.0	1357.2
34.0	1415.0	1357.0
34.01	1409.0	1356.8
34.02	1395.0	1356.6
34.03	1360.0	1356.5
34.04	1360.0	1356.3
34.05	1394.0	1356.1
34.06	1401.0	1356.0
34.07	1395.0	1355.8
34.08	1408.0	1355.6
34.09	1428.0	1355.5
34.1	1424.0	1355.3
34.11	1390.0	1355.1
34.12	1373.0	1355.0
34.13	1398.0	1354.8
34.14	1400.0	1354.6
34.15	1387.0	1354.5
34.16	1379.0	1354.3
34.17	1366.0	1354.2
34.18	1331.0	1354.0
34.19	1373.0	1353.8
34.2	1413.0	1353.7
34.21	1420.0	1353.5
34.22	1396.0	1353.4
34.23	1380.0	1353.2
34.24	1373.0	1353.1
34.25	1389.0	1352.9
34.26	1422.0	1352.8
34.27	1408.0	1352.6
34.28	1361.0	1352.5
34.29	1379.0	1352.3
34.3	1396.0	1352.2
34.31	1390.0	1352.0
34.32	1376.0	1351.9
34.33	1361.0	1351.7
34.34	1366.0	1351.6
34.35	1376.0	1351.4
34.36	1394.0	1351.3
34.37	1429.0	1351.2
34.38	1392.0	1351.0
34.39	1405.0	1350.9
34.4	1427.0	1350.7
34.41	1386.0	1350.6
34.42	1382.0	1350.5
34.43	1403.0	1350.3
34.44	1410.0	1350.2
34.45	1416.0	1350.1
34.46	1393.0	1349.9
34.47	1374.0	1349.8
34.48	1388.0	1349.7
34.49	1420.0	1349.5
34.5	1423.0	1349.4
34.51	1385.0	1349.3
34.52	1356.0	1349.2
34.53	1368.0	1349.0
34.54	1378.0	1348.9
34.55	1373.0	1348.8
34.56	1367.0	1348.7
34.57	1375.0	1348.5
34.58	1408.0	1348.4
34.59	1369.0	1348.3
34.6	1361.0	1348.2
34.61	1391.0	1348.0
34.62	1396.0	1347.9
34.63	1385.0	1347.8
34.64	1409.0	1347.7
34.65	1425.0	1347.6
34.66	1423.0	1347.5
34.67	1424.0	1347.4
34.68	1399.0	1347.2
34.69	1390.0	1347.1
34.7	1397.0	1347.0
34.71	1376.0	1346.9
34.72	1370.0	1346.8
34.73	1324.0	1346.7
34.74	1337.0	1346.6
34.75	1368.0	1346.5
34.76	1383.0	1346.4
34.77	1366.0	1346.3
34.78	1367.0	1346.2
34.79	1389.0	1346.1
34.8	1395.0	1346.0
34.81	1407.0	1345.9
34.82	1406.0	1345.8
34.83	1398.0	1345.7
34.84	1409.0	1345.6
34.85	1385.0	1345.5
34.86	1371.0	1345.4
34.87	1417.0	1345.3
34.88	1439.0	1345.2
34.89	1426.0	1345.1
34.9	1399.0	1345.0
34.91	1399.0	1344.9
34.92	1397.0	1344.8
34.93	1392.0	1344.7
34.94	1414.0	1344.6
34.95	1446.0	1344.5
34.96	1469.0	1344.4
34.97	1442.0	1344.4
34.98	1413.0	1344.3
34.99	1419.0	1344.2
35.0	1435.0	1344.1
35.01	1477.0	1344.0
35.02	1489.0	1343.9
35.03	1466.0	1343.9
35.04	1426.0	1343.8
35.05	1429.0	1343.7
35.06	1424.0	1343.6
35.07	1389.0	1343.5
35.08	1407.0	1343.5
35.09	1440.0	1343.4
35.1	1481.0	1343.3
35.11	1489.0	1343.2
35.12	1497.0	1343.2
35.13	1499.0	1343.1
35.14	1504.0	1343.0
35.15	1457.0	1342.9
35.16	1419.0	1342.9
35.17	1413.0	1342.8
35.18	1409.0	1342.7
35.19	1398.0	1342.7
35.2	1426.0	1342.6
35.21	1454.0	1342.5
35.22	1454.0	1342.5
35.23	1440.0	1342.4
35.24	1436.0	1342.3
35.25	1438.0	1342.3
35.26	1431.0	1342.2
35.27	1441.0	1342.2
35.28	1458.0	1342.1
35.29	1421.0	1342.0
35.3	1397.0	1342.0
35.31	1412.0	1341.9
35.32	1432.0	1341.9
35.33	1431.0	1341.8
35.34	1457.0	1341.8
35.35	1470.0	1341.7
35.36	1445.0	1341.6
35.37	1471.0	1341.6
35.38	1519.0	1341.5
35.39	1524.0	1341.5
35.4	1535.0	1341.4
35.41	1540.0	1341.4
35.42	1550.0	1341.3
35.43	1557.0	1341.3
35.44	1602.0	1341.2
35.45	1669.0	1341.2
35.46	1692.0	1341.1
35.47	1710.0	1341.1
35.48	1750.0	1341.1
35.49	1779.0	1341.0
35.5	1828.0	1341.0
35.51	1888.0	1340.9
35.52	1909.0	1340.9
35.53	1956.0	1340.8
35.54	2041.0	1340.8
35.55	2085.0	1340.8
35.56	2067.0	1340.7
35.57	2057.0	1340.7
35.58	1999.0	1340.7
35.59	1961.0	1340.6
35.6	1955.0	1340.6
35.61	1949.0	1340.5
35.62	1908.0	1340.5
35.63	1873.0	1340.5
35.64	1898.0	1340.4
35.65	1886.0	1340.4
35.66	1829.0	1340.4
35.67	1795.0	1340.4
35.68	1764.0	1340.3
35.69	1746.0	1340.3
35.7	1699.0	1340.3
35.71	1662.0	1340.2
35.72	1619.0	1340.2
35.73	1573.0	1340.2
35.74	1554.0	1340.2
35.75	1551.0	1340.1
35.76	1543.0	1340.1
35.77	1519.0	1340.1
35.78	1499.0	1340.1
35.79	1521.0	1340.0
35.8	1530.0	1340.0
35.81	1530.0	1340.0
35.82	1526.0	1340.0
35.83	1518.0	1340.0
35.84	1515.0	1340.0
35.85	1511.0	1339.9
35.86	1504.0	1339.9
35.87	1497.0	1339.9
35.88	1466.0	1339.9
35.89	1442.0	1339.9
35.9	1467.0	1339.9
35.91	1502.0	1339.8
35.92	1505.0	1339.8
35.93	1499.0	1339.8
35.94	1478.0	1339.8
35.95	1459.0	1339.8
35.96	1448.0	1339.8
35.97	1434.0	1339.8
35.98	1441.0	1339.8
35.99	1426.0	1339.8
36.0	1418.0	1339.8
36.01	1467.0	1339.8
36.02	1483.0	1339.7
36.03	1431.0	1339.7
36.04	1411.0	1339.7
36.05	1441.0	1339.7
36.06	1480.0	1339.7
36.07	1470.0	1339.7
36.08	1419.0	1339.7
36.09	1398.0	1339.7
36.1	1381.0	1339.7
36.11	1386.0	1339.7
36.12	1421.0	1339.7
36.13	1440.0	1339.7
36.14	1445.0	1339.7
36.15	1456.0	1339.7
36.16	1470.0	1339.7
36.17	1463.0	1339.7
36.18	1430.0	1339.8
36.19	1405.0	1339.8
36.2	1383.0	1339.8
36.21	1412.0	1339.8
36.22	1474.0	1339.8
36.23	1478.0	1339.8
36.24	1464.0	1339.8
36.25	1453.0	1339.8
36.26	1425.0	1339.8
36.27	1397.0	1339.8
36.28	1385.0	1339.8
36.29	1384.0	1339.8
36.3	1394.0	1339.9
36.31	1424.0	1339.9
36.32	1438.0	1339.9
36.33	1429.0	1339.9
36.34	1417.0	1339.9
36.35	1390.0	1339.9
36.36	1388.0	1339.9
36.37	1397.0	1340.0
36.38	1410.0	1340.0
36.39	1437.0	1340.0
36.4	1425.0	1340.0
36.41	1425.0	1340.0
36.42	1462.0	1340.1
36.43	1448.0	1340.1
36.44	1389.0	1340.1
36.45	1383.0	1340.1
36.46	1430.0	1340.1
36.47	1448.0	1340.2
36.48	1432.0	1340.2
36.49	1444.0	1340.2
36.5	1451.0	1340.2
36.51	1442.0	1340.3
36.52	1455.0	1340.3
36.53	1455.0	1340.3
36.54	1444.0	1340.3
36.55	1432.0	1340.4
36.56	1460.0	1340.4
36.57	1487.0	1340.4
36.58	1475.0	1340.4
36.59	1486.0	1340.5
36.6	1479.0	1340.5
36.61	1458.0	1340.5
36.62	1467.0	1340.6
36.63	1487.0	1340.6
36.64	1512.0	1340.6
36.65	1529.0	1340.7
36.66	1544.0	1340.7
36.67	1551.0	1340.7
36.68	1529.0	1340.8
36.69	1501.0	1340.8
36.7	1526.0	1340.8
36.71	1601.0	1340.9
36.72	1634.0	1340.9
36.73	1621.0	1340.9
36.74	1640.0	1341.0
36.75	1699.0	1341.0
36.76	1742.0	1341.1
36.77	1769.0	1341.1
36.78	1833.0	1341.1
36.79	1913.0	1341.2
36.8	1970.0	1341.2
36.81	2021.0	1341.3
36.82	2066.0	1341.3
36.83	2166.0	1341.3
36.84	2325.0	1341.4
36.85	2440.0	1341.4
36.86	2548.0	1341.5
36.87	2661.0	1341.5
36.88	2737.0	1341.6
36.89	2791.0	1341.6
36.9	2838.0	1341.7
36.91	2886.0	1341.7
36.92	2967.0	1341.7
36.93	3087.0	1341.8
36.94	3175.0	1341.8
36.95	3230.0	1341.9
36.96	3326.0	1341.9
36.97	3456.0	1342.0
36.98	3556.0	1342.0
36.99	3587.0	1342.1
37.0	3575.0	1342.1
37.01	3514.0	1342.2
37.02	3420.0	1342.2
37.03	3342.0	1342.3
37.04	3283.0	1342.3
37.05	3167.0	1342.4
37.06	2982.0	1342.5
37.07	2912.0	1342.5
37.08	2889.0	1342.6
37.09	2746.0	1342.6
37.1	2598.0	1342.7
37.11	2523.0	1342.7
37.12	2430.0	1342.8
37.13	2322.0	1342.8
37.14	2209.0	1342.9
37.15	2104.0	1343.0
37.16	2018.0	1343.0
37.17	1928.0	1343.1
37.18	1824.0	1343.1
37.19	1752.0	1343.2
37.2	1735.0	1343.3
37.21	1700.0	1343.3
37.22	1648.0	1343.4
37.23	1607.0	1343.4
37.24	1606.0	1343.5
37.25	1593.0	1343.6
37.26	1565.0	1343.6
37.27	1560.0	1343.7
37.28	1579.0	1343.7
37.29	1596.0	1343.8
37.3	1590.0	1343.9
37.31	1555.0	1343.9
37.32	1549.0	1344.0
37.33	1527.0	1344.1
37.34	1497.0	1344.1
37.35	1508.0	1344.2
37.36	1569.0	1344.3
37.37	1607.0	1344.3
37.38	1584.0	1344.4
37.39	1553.0	1344.5
37.4	1551.0	1344.5
37.41	1580.0	1344.6
37.42	1602.0	1344.7
37.43	1598.0	1344.7
37.44	1620.0	1344.8
37.45	1678.0	1344.9
37.46	1703.0	1345.0
37.47	1715.0	1345.0
37.48	1724.0	1345.1
37.49	1779.0	1345.2
37.5	1853.0	1345.2
37.51	1915.0	1345.3
37.52	1925.0	1345.4
37.53	1921.0	1345.5
37.54	1903.0	1345.5
37.55	1895.0	1345.6
37.56	1885.0	1345.7
37.57	1875.0	1345.8
37.58	1848.0	1345.8
37.59	1781.0	1345.9
37.6	1759.0	1346.0
37.61	1767.0	1346.1
37.62	1752.0	1346.1
37.63	1715.0	1346.2
37.64	1666.0	1346.3
37.65	1670.0	1346.4
37.66	1653.0	1346.4
37.67	1592.0	1346.5
37.68	1566.0	1346.6
37.69	1575.0	1346.7
37.7	1544.0	1346.8
37.71	1533.0	1346.8
37.72	1516.0	1346.9
37.73	1490.0	1347.0
37.74	1488.0	1347.1
37.75	1478.0	1347.2
37.76	1444.0	1347.2
37.77	1448.0	1347.3
37.78	1447.0	1347.4
37.79	1428.0	1347.5
37.8	1459.0	1347.6
37.81	1461.0	1347.6
37.82	1429.0	1347.7
37.83	1456.0	1347.8
37.84	1508.0	1347.9
37.85	1510.0	1348.0
37.86	1514.0	1348.1
37.87	1508.0	1348.1
37.88	1500.0	1348.2
37.89	1494.0	1348.3
37.9	1481.0	1348.4
37.91	1507.0	1348.5
37.92	1540.0	1348.6
37.93	1522.0	1348.7
37.94	1487.0	1348.7
37.95	1487.0	1348.8
37.96	1490.0	1348.9
37.97	1484.0	1349.0
37.98	1477.0	1349.1
37.99	1479.0	1349.2
38.0	1477.0	1349.3
38.01	1466.0	1349.4
38.02	1451.0	1349.5
38.03	1440.0	1349.5
38.04	1467.0	1349.6
38.05	1471.0	1349.7
38.06	1437.0	1349.8
38.07	1435.0	1349.9
38.08	1401.0	1350.0
38.09	1396.0	1350.1
38.1	1411.0	1350.2
38.11	1431.0	1350.3
38.12	1447.0	1350.4
38.13	1443.0	1350.4
38.14	1420.0	1350.5
38.15	1430.0	1350.6
38.16	1437.0	1350.7
38.17	1448.0	1350.8
38.18	1414.0	1350.9
38.19	1387.0	1351.0
38.2	1371.0	1351.1
38.21	1363.0	1351.2
38.22	1402.0	1351.3
38.23	1436.0	1351.4
38.24	1425.0	1351.5
38.25	1417.0	1351.6
38.26	1425.0	1351.7
38.27	1391.0	1351.8
38.28	1376.0	1351.9
38.29	1356.0	1352.0
38.3	1371.0	1352.0
38.31	1404.0	1352.1
38.32	1429.0	1352.2
38.33	1454.0	1352.3
38.34	1441.0	1352.4
38.35	1418.0	1352.5
38.36	1398.0	1352.6
38.37	1413.0	1352.7
38.38	1427.0	1352.8
38.39	1419.0	1352.9
38.4	1424.0	1353.0
38.41	1425.0	1353.1
38.42	1428.0	1353.2
38.43	1388.0	1353.3
38.44	1377.0	1353.4
38.45	1439.0	1353.5
38.46	1443.0	1353.6
38.47	1424.0	1353.7
38.48	1443.0	1353.8
38.49	1470.0	1353.9
38.5	1494.0	1354.0
38.51	1468.0	1354.1
38.52	1456.0	1354.2
38.53	1449.0	1354.3
38.54	1442.0	1354.4
38.55	1464.0	1354.5
38.56	1520.0	1354.6
38.57	1542.0	1354.7
38.58	1553.0	1354.8
38.59	1513.0	1354.9
38.6	1568.0	1355.0
38.61	1630.0	1355.1
38.62	1657.0	1355.2
38.63	1623.0	1355.3
38.64	1625.0	1355.4
38.65	1661.0	1355.5
38.66	1639.0	1355.6
38.67	1597.0	1355.7
38.68	1632.0	1355.8
38.69	1628.0	1355.9
38.7	1613.0	1356.0
38.71	1606.0	1356.1
38.72	1595.0	1356.2
38.73	1581.0	1356.4
38.74	1581.0	1356.5
38.75	1532.0	1356.6
38.76	1512.0	1356.7
38.77	1510.0	1356.8
38.78	1526.0	1356.9
38.79	1545.0	1357.0
38.8	1514.0	1357.1
38.81	1525.0	1357.2
38.82	1555.0	1357.3
38.83	1557.0	1357.4
38.84	1544.0	1357.5
38.85	1526.0	1357.6
38.86	1528.0	1357.7
38.87	1541.0	1357.8
38.88	1535.0	1357.9
38.89	1517.0	1358.0
38.9	1512.0	1358.1
38.91	1518.0	1358.2
38.92	1564.0	1358.3
38.93	1539.0	1358.4
38.94	1550.0	1358.6
38.95	1549.0	1358.7
38.96	1545.0	1358.8
38.97	1535.0	1358.9
38.98	1607.0	1359.0
38.99	1645.0	1359.1
39.0	1666.0	1359.2
39.01	1705.0	1359.3
39.02	1702.0	1359.4
39.03	1671.0	1359.5
39.04	1701.0	1359.6
39.05	1743.0	1359.7
39.06	1786.0	1359.8
39.07	1794.0	1359.9
39.08	1801.0	1360.0
39.09	1864.0	1360.2
39.1	1921.0	1360.3
39.11	1904.0	1360.4
39.12	1963.0	1360.5
39.13	2084.0	1360.6
39.14	2167.0	1360.7
39.15	2206.0	1360.8
39.16	2311.0	1360.9
39.17	2400.0	1361.0
39.18	2532.0	1361.1
39.19	2600.0	1361.2
39.2	2717.0	1361.3
39.21	2866.0	1361.4
39.22	3082.0	1361.6
39.23	3207.0	1361.7
39.24	3348.0	1361.8
39.25	3489.0	1361.9
39.26	3635.0	1362.0
39.27	3728.0	1362.1
39.28	3795.0	1362.2
39.29	3863.0	1362.3
39.3	3833.0	1362.4
39.31	3761.0	1362.5
39.32	3708.0	1362.6
39.33	3617.0	1362.7
39.34	3515.0	1362.8
39.35	3400.0	1363.0
39.36	3323.0	1363.1
39.37	3205.0	1363.2
39.38	3101.0	1363.3
39.39	2978.0	1363.4
39.4	2851.0	1363.5
39.41	2688.0	1363.6
39.42	2646.0	1363.7
39.43	2488.0	1363.8
39.44	2353.0	1363.9
39.45	2244.0	1364.0
39.46	2108.0	1364.1
39.47	2008.0	1364.3
39.48	1943.0	1364.4
39.49	1907.0	1364.5
39.5	1813.0	1364.6
39.51	1757.0	1364.7
39.52	1758.0	1364.8
39.53	1740.0	1364.9
39.54	1737.0	1365.0
39.55	1692.0	1365.1
39.56	1662.0	1365.2
39.57	1609.0	1365.3
39.58	1550.0	1365.4
39.59	1584.0	1365.5
39.6	1580.0	1365.7
39.61	1554.0	1365.8
39.62	1575.0	1365.9
39.63	1561.0	1366.0
39.64	1559.0	1366.1
39.65	1547.0	1366.2
39.66	1503.0	1366.3
39.67	1499.0	1366.4
39.68	1546.0	1366.5
39.69	1538.0	1366.6
39.7	1494.0	1366.7
39.71	1497.0	1366.8
39.72	1516.0	1366.9
39.73	1527.0	1367.1
39.74	1534.0	1367.2
39.75	1532.0	1367.3
39.76	1513.0	1367.4
39.77	1523.0	1367.5
39.78	1515.0	1367.6
39.79	1487.0	1367.7
39.8	1477.0	1367.8
39.81	1478.0	1367.9
39.82	1495.0	1368.0
39.83	1509.0	1368.1
39.84	1446.0	1368.2
39.85	1442.0	1368.3
39.86	1477.0	1368.4
39.87	1460.0	1368.5
39.88	1433.0	1368.7
39.89	1418.0	1368.8
39.9	1434.0	1368.9
39.91	1472.0	1369.0
39.92	1451.0	1369.1
39.93	1423.0	1369.2
39.94	1421.0	1369.3
39.95	1418.0	1369.4
39.96	1471.0	1369.5
39.97	1487.0	1369.6
39.98	1454.0	1369.7
39.99	1444.0	1369.8
40.0	1448.0	1369.9
40.01	1427.0	1370.0
40.02	1477.0	1370.1
40.03	1444.0	1370.2
40.04	1453.0	1370.3
40.05	1489.0	1370.4
40.06	1517.0	1370.5
40.07	1473.0	1370.7
40.08	1454.0	1370.8
40.09	1429.0	1370.9
40.1	1410.0	1371.0
40.11	1401.0	1371.1
40.12	1423.0	1371.2
40.13	1424.0	1371.3
40.14	1425.0	1371.4
40.15	1409.0	1371.5
40.16	1450.0	1371.6
40.17	1450.0	1371.7
40.18	1450.0	1371.8
40.19	1469.0	1371.9
40.2	1434.0	1372.0
40.21	1421.0	1372.1
40.22	1444.0	1372.2
40.23	1467.0	1372.3
40.24	1476.0	1372.4
40.25	1467.0	1372.5
40.26	1417.0	1372.6
40.27	1452.0	1372.7
40.28	1481.0	1372.8
40.29	1486.0	1372.9
40.3	1464.0	1373.0
40.31	1436.0	1373.1
40.32	1417.0	1373.2
40.33	1446.0	1373.3
40.34	1436.0	1373.4
40.35	1435.0	1373.5
40.36	1465.0	1373.6
40.37	1445.0	1373.7
40.38	1455.0	1373.8
40.39	1459.0	1373.9
40.4	1437.0	1374.0
40.41	1445.0	1374.1
40.42	1481.0	1374.2
40.43	1473.0	1374.3
40.44	1427.0	1374.4
40.45	1397.0	1374.5
40.46	1413.0	1374.6
40.47	1428.0	1374.7
40.48	1440.0	1374.8
40.49	1458.0	1374.9
40.5	1475.0	1375.0
40.51	1490.0	1375.1
40.52	1508.0	1375.2
40.53	1445.0	1375.3
40.54	1467.0	1375.4
40.55	1494.0	1375.5
40.56	1486.0	1375.5
40.57	1493.0	1375.6
40.58	1536.0	1375.7
40.59	1587.0	1375.8
40.6	1544.0	1375.9
40.61	1479.0	1376.0
40.62	1529.0	1376.1
40.63	1558.0	1376.2
40.64	1571.0	1376.3
40.65	1577.0	1376.4
40.66	1533.0	1376.5
40.67	1569.0	1376.6
40.68	1574.0	1376.7
40.69	1633.0	1376.8
40.7	1633.0	1376.9
40.71	1666.0	1377.0
40.72	1699.0	1377.0
40.73	1670.0	1377.1
40.74	1660.0	1377.2
40.75	1697.0	1377.3
40.76	1754.0	1377.4
40.77	1795.0	1377.5
40.78	1820.0	1377.6
40.79	1823.0	1377.7
40.8	1817.0	1377.8
40.81	1785.0	1377.9
40.82	1775.0	1377.9
40.83	1813.0	1378.0
40.84	1829.0	1378.1
40.85	1760.0	1378.2
40.86	1773.0	1378.3
40.87	1795.0	1378.4
40.88	1777.0	1378.5
40.89	1739.0	1378.6
40.9	1757.0	1378.6
40.91	1699.0	1378.7
40.92	1665.0	1378.8
40.93	1676.0	1378.9
40.94	1679.0	1379.0
40.95	1641.0	1379.1
40.96	1597.0	1379.2
40.97	1581.0	1379.2
40.98	1576.0	1379.3
40.99	1557.0	1379.4
41.0	1508.0	1379.5
41.01	1501.0	1379.6
41.02	1489.0	1379.7
41.03	1513.0	1379.7
41.04	1468.0	1379.8
41.05	1488.0	1379.9
41.06	1522.0	1380.0
41.07	1517.0	1380.1
41.08	1495.0	1380.1
41.09	1476.0	1380.2
41.1	1462.0	1380.3
41.11	1443.0	1380.4
41.12	1439.0	1380.5
41.13	1456.0	1380.5
41.14	1431.0	1380.6
41.15	1436.0	1380.7
41.16	1405.0	1380.8
41.17	1449.0	1380.9
41.18	1445.0	1380.9
41.19	1441.0	1381.0
41.2	1434.0	1381.1
41.21	1416.0	1381.2
41.22	1422.0	1381.2
41.23	1453.0	1381.3
41.24	1433.0	1381.4
41.25	1416.0	1381.5
41.26	1417.0	1381.5
41.27	1377.0	1381.6
41.28	1409.0	1381.7
41.29	1421.0	1381.8
41.3	1439.0	1381.8
41.31	1413.0	1381.9
41.32	1402.0	1382.0
41.33	1412.0	1382.1
41.34	1453.0	1382.1
41.35	1423.0	1382.2
41.36	1449.0	1382.3
41.37	1409.0	1382.3
41.38	1417.0	1382.4
41.39	1443.0	1382.5
41.4	1454.0	1382.6
41.41	1453.0	1382.6
41.42	1434.0	1382.7
41.43	1457.0	1382.8
41.44	1446.0	1382.8
41.45	1425.0	1382.9
41.46	1415.0	1383.0
41.47	1429.0	1383.0
41.48	1447.0	1383.1
41.49	1448.0	1383.2
41.5	1447.0	1383.2
41.51	1450.0	1383.3
41.52	1419.0	1383.4
41.53	1436.0	1383.4
41.54	1416.0	1383.5
41.55	1431.0	1383.6
41.56	1420.0	1383.6
41.57	1384.0	1383.7
41.58	1429.0	1383.7
41.59	1405.0	1383.8
41.6	1388.0	1383.9
41.61	1447.0	1383.9
41.62	1489.0	1384.0
41.63	1449.0	1384.0
41.64	1453.0	1384.1
41.65	1397.0	1384.2
41.66	1424.0	1384.2
41.67	1413.0	1384.3
41.68	1320.0	1384.3
41.69	1401.0	1384.4
41.7	1466.0	1384.5
41.71	1411.0	1384.5
41.72	1372.0	1384.6
41.73	1412.0	1384.6
41.74	1367.0	1384.7
41.75	1406.0	1384.7
41.76	1432.0	1384.8
41.77	1373.0	1384.8
41.78	1394.0	1384.9
41.79	1428.0	1384.9
41.8	1431.0	1385.0
41.81	1393.0	1385.0
41.82	1404.0	1385.1
41.83	1408.0	1385.1
41.84	1447.0	1385.2
41.85	1447.0	1385.3
41.86	1441.0	1385.3
41.87	1444.0	1385.4
41.88	1494.0	1385.4
41.89	1428.0	1385.4
41.9	1416.0	1385.5
41.91	1408.0	1385.5
41.92	1394.0	1385.6
41.93	1411.0	1385.6
41.94	1437.0	1385.7
41.95	1463.0	1385.7
41.96	1370.0	1385.8
41.97	1396.0	1385.8
41.98	1357.0	1385.9
41.99	1414.0	1385.9
42.0	1464.0	1386.0
42.01	1448.0	1386.0
42.02	1424.0	1386.0
42.03	1364.0	1386.1
42.04	1387.0	1386.1
42.05	1458.0	1386.2
42.06	1429.0	1386.2
42.07	1381.0	1386.3
42.08	1354.0	1386.3
42.09	1382.0	1386.3
42.1	1421.0	1386.4
42.11	1472.0	1386.4
42.12	1457.0	1386.5
42.13	1482.0	1386.5
42.14	1397.0	1386.5
42.15	1432.0	1386.6
42.16	1410.0	1386.6
42.17	1440.0	1386.6
42.18	1436.0	1386.7
42.19	1448.0	1386.7
42.2	1495.0	1386.8
42.21	1501.0	1386.8
42.22	1467.0	1386.8
42.23	1480.0	1386.9
42.24	1489.0	1386.9
42.25	1493.0	1386.9
42.26	1465.0	1387.0
42.27	1449.0	1387.0
42.28	1509.0	1387.0
42.29	1488.0	1387.1
42.3	1489.0	1387.1
42.31	1485.0	1387.1
42.32	1472.0	1387.2
42.33	1532.0	1387.2
42.34	1535.0	1387.2
42.35	1572.0	1387.2
42.36	1546.0	1387.3
42.37	1641.0	1387.3
42.38	1623.0	1387.3
42.39	1591.0	1387.4
42.4	1649.0	1387.4
42.41	1677.0	1387.4
42.42	1631.0	1387.4
42.43	1637.0	1387.5
42.44	1649.0	1387.5
42.45	1664.0	1387.5
42.46	1717.0	1387.6
42.47	1680.0	1387.6
42.48	1639.0	1387.6
42.49	1673.0	1387.6
42.5	1645.0	1387.7
42.51	1662.0	1387.7
42.52	1613.0	1387.7
42.53	1612.0	1387.7
42.54	1579.0	1387.7
42.55	1582.0	1387.8
42.56	1602.0	1387.8
42.57	1570.0	1387.8
42.58	1551.0	1387.8
42.59	1579.0	1387.9
42.6	1575.0	1387.9
42.61	1561.0	1387.9
42.62	1534.0	1387.9
42.63	1509.0	1387.9
42.64	1551.0	1388.0
42.65	1532.0	1388.0
42.66	1512.0	1388.0
42.67	1543.0	1388.0
42.68	1514.0	1388.0
42.69	1505.0	1388.1
42.7	1456.0	1388.1
42.71	1444.0	1388.1
42.72	1506.0	1388.1
42.73	1478.0	1388.1
42.74	1419.0	1388.1
42.75	1482.0	1388.2
42.76	1453.0	1388.2
42.77	1473.0	1388.2
42.78	1447.0	1388.2
42.79	1468.0	1388.2
42.8	1466.0	1388.2
42.81	1480.0	1388.2
42.82	1443.0	1388.3
42.83	1460.0	1388.3
42.84	1475.0	1388.3
42.85	1472.0	1388.3
42.86	1479.0	1388.3
42.87	1474.0	1388.3
42.88	1433.0	1388.3
42.89	1426.0	1388.4
42.9	1438.0	1388.4
42.91	1445.0	1388.4
42.92	1453.0	1388.4
42.93	1453.0	1388.4
42.94	1461.0	1388.4
42.95	1462.0	1388.4
42.96	1461.0	1388.4
42.97	1455.0	1388.4
42.98	1420.0	1388.4
42.99	1457.0	1388.5
43.0	1478.0	1388.5
43.01	1468.0	1388.5
43.02	1387.0	1388.5
43.03	1416.0	1388.5
43.04	1425.0	1388.5
43.05	1450.0	1388.5
43.06	1444.0	1388.5
43.07	1437.0	1388.5
43.08	1408.0	1388.5
43.09	1429.0	1388.5
43.1	1438.0	1388.5
43.11	1456.0	1388.5
43.12	1465.0	1388.5
43.13	1415.0	1388.5
43.14	1436.0	1388.5
43.15	1444.0	1388.5
43.16	1449.0	1388.5
43.17	1488.0	1388.6
43.18	1470.0	1388.6
43.19	1522.0	1388.6
43.2	1418.0	1388.6
43.21	1420.0	1388.6
43.22	1459.0	1388.6
43.23	1438.0	1388.6
43.24	1430.0	1388.6
43.25	1433.0	1388.6
43.26	1425.0	1388.6
43.27	1412.0	1388.6
43.28	1444.0	1388.6
43.29	1435.0	1388.6
43.3	1425.0	1388.6
43.31	1411.0	1388.6
43.32	1430.0	1388.6
43.33	1421.0	1388.6
43.34	1424.0	1388.6
43.35	1454.0	1388.6
43.36	1426.0	1388.6
43.37	1415.0	1388.6
43.38	1428.0	1388.6
43.39	1432.0	1388.6
43.4	1439.0	1388.6
43.41	1402.0	1388.5
43.42	1431.0	1388.5
43.43	1436.0	1388.5
43.44	1461.0	1388.5
43.45	1461.0	1388.5
43.46	1441.0	1388.5
43.47	1498.0	1388.5
43.48	1471.0	1388.5
43.49	1443.0	1388.5
43.5	1459.0	1388.5
43.51	1451.0	1388.5
43.52	1432.0	1388.5
43.53	1470.0	1388.5
43.54	1470.0	1388.5
43.55	1437.0	1388.5
43.56	1415.0	1388.5
43.57	1408.0	1388.5
43.58	1453.0	1388.5
43.59	1475.0	1388.4
43.6	1466.0	1388.4
43.61	1452.0	1388.4
43.62	1461.0	1388.4
43.63	1471.0	1388.4
43.64	1488.0	1388.4
43.65	1471.0	1388.4
43.66	1485.0	1388.4
43.67	1490.0	1388.4
43.68	1460.0	1388.4
43.69	1464.0	1388.4
43.7	1462.0	1388.3
43.71	1443.0	1388.3
43.72	1483.0	1388.3
43.73	1492.0	1388.3
43.74	1456.0	1388.3
43.75	1461.0	1388.3
43.76	1445.0	1388.3
43.77	1476.0	1388.3
43.78	1487.0	1388.3
43.79	1487.0	1388.2
43.8	1452.0	1388.2
43.81	1418.0	1388.2
43.82	1416.0	1388.2
43.83	1456.0	1388.2
43.84	1422.0	1388.2
43.85	1419.0	1388.2
43.86	1467.0	1388.1
43.87	1503.0	1388.1
43.88	1474.0	1388.1
43.89	1436.0	1388.1
43.9	1416.0	1388.1
43.91	1476.0	1388.1
43.92	1524.0	1388.1
43.93	1467.0	1388.0
43.94	1457.0	1388.0
43.95	1487.0	1388.0
43.96	1488.0	1388.0
43.97	1481.0	1388.0
43.98	1448.0	1388.0
43.99	1410.0	1387.9
44.0	1480.0	1387.9
44.01	1528.0	1387.9
44.02	1510.0	1387.9
44.03	1511.0	1387.9
44.04	1531.0	1387.9
44.05	1539.0	1387.8
44.06	1509.0	1387.8
44.07	1517.0	1387.8
44.08	1488.0	1387.8
44.09	1513.0	1387.8
44.1	1533.0	1387.8
44.11	1544.0	1387.7
44.12	1516.0	1387.7
44.13	1484.0	1387.7
44.14	1479.0	1387.7
44.15	1487.0	1387.7
44.16	1529.0	1387.6
44.17	1561.0	1387.6
44.18	1547.0	1387.6
44.19	1525.0	1387.6
44.2	1549.0	1387.6
44.21	1535.0	1387.5
44.22	1554.0	1387.5
44.23	1593.0	1387.5
44.24	1580.0	1387.5
44.25	1593.0	1387.5
44.26	1599.0	1387.4
44.27	1573.0	1387.4
44.28	1596.0	1387.4
44.29	1634.0	1387.4
44.3	1639.0	1387.3
44.31	1605.0	1387.3
44.32	1634.0	1387.3
44.33	1655.0	1387.3
44.34	1665.0	1387.3
44.35	1705.0	1387.2
44.36	1729.0	1387.2
44.37	1741.0	1387.2
44.38	1797.0	1387.2
44.39	1816.0	1387.1
44.4	1819.0	1387.1
44.41	1853.0	1387.1
44.42	1877.0	1387.1
44.43	1934.0	1387.0
44.44	1985.0	1387.0
44.45	2063.0	1387.0
44.46	2114.0	1387.0
44.47	2176.0	1386.9
44.48	2212.0	1386.9
44.49	2296.0	1386.9
44.5	2420.0	1386.9
44.51	2511.0	1386.8
44.52	2595.0	1386.8
44.53	2722.0	1386.8
44.54	2863.0	1386.8
44.55	3031.0	1386.7
44.56	3204.0	1386.7
44.57	3357.0	1386.7
44.58	3536.0	1386.7
44.59	3694.0	1386.6
44.6	3889.0	1386.6
44.61	4078.0	1386.6
44.62	4413.0	1386.6
44.63	4699.0	1386.5
44.64	4940.0	1386.5
44.65	5152.0	1386.5
44.66	5378.0	1386.5
44.67	5577.0	1386.4
44.68	5842.0	1386.4
44.69	5975.0	1386.4
44.7	6162.0	1386.3
44.71	6316.0	1386.3
44.72	6353.0	1386.3
44.73	6463.0	1386.3
44.74	6380.0	1386.2
44.75	6277.0	1386.2
44.76	6163.0	1386.2
44.77	6102.0	1386.1
44.78	6035.0	1386.1
44.79	5892.0	1386.1
44.8	5710.0	1386.1
44.81	5528.0	1386.0
44.82	5348.0	1386.0
44.83	5137.0	1386.0
44.84	4990.0	1385.9
44.85	4860.0	1385.9
44.86	4695.0	1385.9
44.87	4475.0	1385.9
44.88	4225.0	1385.8
44.89	4054.0	1385.8
44.9	3861.0	1385.8
44.91	3772.0	1385.7
44.92	3594.0	1385.7
44.93	3463.0	1385.7
44.94	3343.0	1385.6
44.95	3309.0	1385.6
44.96	3256.0	1385.6
44.97	3255.0	1385.6
44.98	3288.0	1385.5
44.99	3329.0	1385.5
45.0	3399.0	1385.5
45.01	3449.0	1385.4
45.02	3620.0	1385.4
45.03	3811.0	1385.4
45.04	4009.0	1385.3
45.05	4209.0	1385.3
45.06	4436.0	1385.3
45.07	4707.0	1385.2
45.08	4850.0	1385.2
45.09	4971.0	1385.2
45.1	5091.0	1385.1
45.11	5087.0	1385.1
45.12	5003.0	1385.1
45.13	4949.0	1385.1
45.14	4780.0	1385.0
45.15	4575.0	1385.0
45.16	4324.0	1385.0
45.17	4174.0	1384.9
45.18	4061.0	1384.9
45.19	3987.0	1384.9
45.2	3932.0	1384.8
45.21	3880.0	1384.8
45.22	3767.0	1384.8
45.23	3615.0	1384.7
45.24	3417.0	1384.7
45.25	3262.0	1384.7
45.26	3094.0	1384.6
45.27	2881.0	1384.6
45.28	2669.0	1384.6
45.29	2544.0	1384.5
45.3	2442.0	1384.5
45.31	2279.0	1384.5
45.32	2180.0	1384.4
45.33	2146.0	1384.4
45.34	2070.0	1384.4
45.35	1999.0	1384.3
45.36	1964.0	1384.3
45.37	1918.0	1384.3
45.38	1845.0	1384.2
45.39	1746.0	1384.2
45.4	1718.0	1384.2
45.41	1703.0	1384.1
45.42	1694.0	1384.1
45.43	1690.0	1384.1
45.44	1697.0	1384.0
45.45	1673.0	1384.0
45.46	1639.0	1384.0
45.47	1664.0	1383.9
45.48	1647.0	1383.9
45.49	1595.0	1383.9
45.5	1596.0	1383.8
45.51	1580.0	1383.8
45.52	1608.0	1383.8
45.53	1583.0	1383.7
45.54	1564.0	1383.7
45.55	1571.0	1383.7
45.56	1538.0	1383.6
45.57	1538.0	1383.6
45.58	1528.0	1383.6
45.59	1531.0	1383.5
45.6	1524.0	1383.5
45.61	1521.0	1383.5
45.62	1552.0	1383.4
45.63	1537.0	1383.4
45.64	1504.0	1383.4
45.65	1527.0	1383.3
45.66	1540.0	1383.3
45.67	1522.0	1383.3
45.68	1481.0	1383.2
45.69	1496.0	1383.2
45.7	1513.0	1383.2
45.71	1514.0	1383.1
45.72	1486.0	1383.1
45.73	1435.0	1383.1
45.74	1421.0	1383.0
45.75	1411.0	1383.0
45.76	1403.0	1382.9
45.77	1420.0	1382.9
45.78	1496.0	1382.9
45.79	1486.0	1382.8
45.8	1478.0	1382.8
45.81	1449.0	1382.8
45.82	1444.0	1382.7
45.83	1452.0	1382.7
45.84	1453.0	1382.7
45.85	1456.0	1382.6
45.86	1466.0	1382.6
45.87	1455.0	1382.6
45.88	1448.0	1382.5
45.89	1456.0	1382.5
45.9	1429.0	1382.5
45.91	1416.0	1382.4
45.92	1411.0	1382.4
45.93	1400.0	1382.4
45.94	1419.0	1382.3
45.95	1436.0	1382.3
45.96	1452.0	1382.3
45.97	1456.0	1382.2
45.98	1449.0	1382.2
45.99	1458.0	1382.2
46.0	1461.0	1382.1
46.01	1456.0	1382.1
46.02	1436.0	1382.1
46.03	1436.0	1382.0
46.04	1445.0	1382.0
46.05	1413.0	1382.0
46.06	1426.0	1381.9
46.07	1430.0	1381.9
46.08	1422.0	1381.9
46.09	1454.0	1381.8
46.1	1456.0	1381.8
46.11	1450.0	1381.8
46.12	1455.0	1381.7
46.13	1399.0	1381.7
46.14	1408.0	1381.7
46.15	1420.0	1381.6
46.16	1388.0	1381.6
46.17	1383.0	1381.6
46.18	1414.0	1381.5
46.19	1429.0	1381.5
46.2	1431.0	1381.5
46.21	1431.0	1381.4
46.22	1454.0	1381.4
46.23	1454.0	1381.4
46.24	1436.0	1381.3
46.25	1415.0	1381.3
46.26	1418.0	1381.3
46.27	1439.0	1381.2
46.28	1470.0	1381.2
46.29	1466.0	1381.2
46.3	1436.0	1381.1
46.31	1440.0	1381.1
46.32	1418.0	1381.1
46.33	1395.0	1381.0
46.34	1401.0	1381.0
46.35	1441.0	1381.0
46.36	1471.0	1380.9
46.37	1439.0	1380.9
46.38	1396.0	1380.9
46.39	1404.0	1380.8
46.4	1431.0	1380.8
46.41	1424.0	1380.8
46.42	1426.0	1380.7
46.43	1458.0	1380.7
46.44	1435.0	1380.7
46.45	1409.0	1380.6
46.46	1428.0	1380.6
46.47	1448.0	1380.6
46.48	1459.0	1380.5
46.49	1460.0	1380.5
46.5	1457.0	1380.5
46.51	1467.0	1380.5
46.52	1450.0	1380.4
46.53	1480.0	1380.4
46.54	1450.0	1380.4
46.55	1421.0	1380.3
46.56	1420.0	1380.3
46.57	1402.0	1380.3
46.58	1450.0	1380.2
46.59	1454.0	1380.2
46.6	1453.0	1380.2
46.61	1445.0	1380.1
46.62	1458.0	1380.1
46.63	1431.0	1380.1
46.64	1390.0	1380.1
46.65	1416.0	1380.0
46.66	1454.0	1380.0
46.67	1472.0	1380.0
46.68	1488.0	1379.9
46.69	1482.0	1379.9
46.7	1466.0	1379.9
46.71	1442.0	1379.8
46.72	1424.0	1379.8
46.73	1435.0	1379.8
46.74	1429.0	1379.8
46.75	1435.0	1379.7
46.76	1430.0	1379.7
46.77	1398.0	1379.7
46.78	1421.0	1379.6
46.79	1442.0	1379.6
46.8	1419.0	1379.6
46.81	1402.0	1379.6
46.82	1417.0	1379.5
46.83	1437.0	1379.5
46.84	1399.0	1379.5
46.85	1351.0	1379.4
46.86	1412.0	1379.4
46.87	1448.0	1379.4
46.88	1436.0	1379.4
46.89	1407.0	1379.3
46.9	1380.0	1379.3
46.91	1414.0	1379.3
46.92	1439.0	1379.2
46.93	1414.0	1379.2
46.94	1399.0	1379.2
46.95	1385.0	1379.2
46.96	1433.0	1379.1
46.97	1458.0	1379.1
46.98	1404.0	1379.1
46.99	1383.0	1379.1
47.0	1426.0	1379.0
47.01	1412.0	1379.0
47.02	1428.0	1379.0
47.03	1439.0	1379.0
47.04	1437.0	1378.9
47.05	1394.0	1378.9
47.06	1375.0	1378.9
47.07	1421.0	1378.9
47.08	1462.0	1378.8
47.09	1476.0	1378.8
47.1	1485.0	1378.8
47.11	1469.0	1378.8
47.12	1433.0	1378.7
47.13	1419.0	1378.7
47.14	1447.0	1378.7
47.15	1462.0	1378.7
47.16	1436.0	1378.6
47.17	1423.0	1378.6
47.18	1450.0	1378.6
47.19	1429.0	1378.6
47.2	1396.0	1378.5
47.21	1378.0	1378.5
47.22	1415.0	1378.5
47.23	1462.0	1378.5
47.24	1493.0	1378.4
47.25	1477.0	1378.4
47.26	1444.0	1378.4
47.27	1427.0	1378.4
47.28	1423.0	1378.4
47.29	1426.0	1378.3
47.3	1450.0	1378.3
47.31	1500.0	1378.3
47.32	1518.0	1378.3
47.33	1528.0	1378.2
47.34	1537.0	1378.2
47.35	1551.0	1378.2
47.36	1557.0	1378.2
47.37	1572.0	1378.2
47.38	1587.0	1378.1
47.39	1606.0	1378.1
47.4	1618.0	1378.1
47.41	1591.0	1378.1
47.42	1546.0	1378.1
47.43	1533.0	1378.0
47.44	1509.0	1378.0
47.45	1516.0	1378.0
47.46	1542.0	1378.0
47.47	1521.0	1378.0
47.48	1502.0	1378.0
47.49	1503.0	1377.9
47.5	1501.0	1377.9
47.51	1499.0	1377.9
47.52	1517.0	1377.9
47.53	1523.0	1377.9
47.54	1506.0	1377.8
47.55	1507.0	1377.8
47.56	1526.0	1377.8
47.57	1492.0	1377.8
47.58	1442.0	1377.8
47.59	1447.0	1377.8
47.6	1457.0	1377.7
47.61	1477.0	1377.7
47.62	1502.0	1377.7
47.63	1474.0	1377.7
47.64	1439.0	1377.7
47.65	1448.0	1377.7
47.66	1440.0	1377.6
47.67	1410.0	1377.6
47.68	1430.0	1377.6
47.69	1462.0	1377.6
47.7	1450.0	1377.6
47.71	1415.0	1377.6
47.72	1388.0	1377.6
47.73	1378.0	1377.5
47.74	1393.0	1377.5
47.75	1426.0	1377.5
47.76	1432.0	1377.5
47.77	1418.0	1377.5
47.78	1407.0	1377.5
47.79	1399.0	1377.5
47.8	1413.0	1377.5
47.81	1425.0	1377.4
47.82	1442.0	1377.4
47.83	1413.0	1377.4
47.84	1392.0	1377.4
47.85	1419.0	1377.4
47.86	1418.0	1377.4
47.87	1407.0	1377.4
47.88	1399.0	1377.4
47.89	1409.0	1377.4
47.9	1399.0	1377.3
47.91	1415.0	1377.3
47.92	1447.0	1377.3
47.93	1447.0	1377.3
47.94	1425.0	1377.3
47.95	1406.0	1377.3
47.96	1403.0	1377.3
47.97	1412.0	1377.3
47.98	1424.0	1377.3
47.99	1441.0	1377.3
48.0	1434.0	1377.3
48.01	1413.0	1377.3
48.02	1428.0	1377.2
48.03	1439.0	1377.2
48.04	1391.0	1377.2
48.05	1325.0	1377.2
48.06	1378.0	1377.2
48.07	1439.0	1377.2
48.08	1428.0	1377.2
48.09	1430.0	1377.2
48.1	1420.0	1377.2
48.11	1407.0	1377.2
48.12	1424.0	1377.2
48.13	1433.0	1377.2
48.14	1424.0	1377.2
48.15	1422.0	1377.2
48.16	1422.0	1377.2
48.17	1396.0	1377.2
48.18	1386.0	1377.2
48.19	1393.0	1377.2
48.2	1419.0	1377.2
48.21	1437.0	1377.2
48.22	1401.0	1377.2
48.23	1390.0	1377.1
48.24	1417.0	1377.1
48.25	1430.0	1377.1
48.26	1418.0	1377.1
48.27	1408.0	1377.1
48.28	1424.0	1377.1
48.29	1456.0	1377.1
48.3	1459.0	1377.1
48.31	1432.0	1377.1
48.32	1419.0	1377.1
48.33	1453.0	1377.1
48.34	1453.0	1377.1
48.35	1425.0	1377.1
48.36	1433.0	1377.1
48.37	1432.0	1377.1
48.38	1457.0	1377.1
48.39	1474.0	1377.2
48.4	1444.0	1377.2
48.41	1429.0	1377.2
48.42	1440.0	1377.2
48.43	1429.0	1377.2
48.44	1430.0	1377.2
48.45	1450.0	1377.2
48.46	1449.0	1377.2
48.47	1445.0	1377.2
48.48	1456.0	1377.2
48.49	1448.0	1377.2
48.5	1445.0	1377.2
48.51	1438.0	1377.2
48.52	1461.0	1377.2
48.53	1477.0	1377.2
48.54	1464.0	1377.2
48.55	1457.0	1377.2
48.56	1461.0	1377.2
48.57	1458.0	1377.2
48.58	1459.0	1377.2
48.59	1460.0	1377.2
48.6	1467.0	1377.2
48.61	1469.0	1377.3
48.62	1477.0	1377.3
48.63	1480.0	1377.3
48.64	1456.0	1377.3
48.65	1477.0	1377.3
48.66	1527.0	1377.3
48.67	1561.0	1377.3
48.68	1546.0	1377.3
48.69	1532.0	1377.3
48.7	1525.0	1377.3
48.71	1555.0	1377.3
48.72	1575.0	1377.4
48.73	1560.0	1377.4
48.74	1598.0	1377.4
48.75	1670.0	1377.4
48.76	1692.0	1377.4
48.77	1681.0	1377.4
48.78	1720.0	1377.4
48.79	1770.0	1377.4
48.8	1775.0	1377.4
48.81	1788.0	1377.5
48.82	1820.0	1377.5
48.83	1834.0	1377.5
48.84	1844.0	1377.5
48.85	1844.0	1377.5
48.86	1841.0	1377.5
48.87	1880.0	1377.5
48.88	1888.0	1377.6
48.89	1881.0	1377.6
48.9	1875.0	1377.6
48.91	1838.0	1377.6
48.92	1831.0	1377.6
48.93	1815.0	1377.6
48.94	1809.0	1377.6
48.95	1798.0	1377.7
48.96	1816.0	1377.7
48.97	1808.0	1377.7
48.98	1763.0	1377.7
48.99	1718.0	1377.7
49.0	1697.0	1377.7
49.01	1684.0	1377.8
49.02	1656.0	1377.8
49.03	1627.0	1377.8
49.04	1600.0	1377.8
49.05	1574.0	1377.8
49.06	1573.0	1377.9
49.07	1593.0	1377.9
49.08	1584.0	1377.9
49.09	1544.0	1377.9
49.1	1539.0	1377.9
49.11	1540.0	1378.0
49.12	1507.0	1378.0
49.13	1519.0	1378.0
49.14	1530.0	1378.0
49.15	1518.0	1378.0
49.16	1520.0	1378.1
49.17	1511.0	1378.1
49.18	1481.0	1378.1
49.19	1452.0	1378.1
49.2	1479.0	1378.1
49.21	1494.0	1378.2
49.22	1478.0	1378.2
49.23	1478.0	1378.2
49.24	1464.0	1378.2
49.25	1447.0	1378.3
49.26	1447.0	1378.3
49.27	1440.0	1378.3
49.28	1435.0	1378.3
49.29	1457.0	1378.4
49.3	1461.0	1378.4
49.31	1444.0	1378.4
49.32	1438.0	1378.4
49.33	1432.0	1378.5
49.34	1428.0	1378.5
49.35	1414.0	1378.5
49.36	1408.0	1378.5
49.37	1413.0	1378.6
49.38	1415.0	1378.6
49.39	1415.0	1378.6
49.4	1408.0	1378.6
49.41	1417.0	1378.7
49.42	1470.0	1378.7
49.43	1471.0	1378.7
49.44	1443.0	1378.8
49.45	1464.0	1378.8
49.46	1459.0	1378.8
49.47	1439.0	1378.8
49.48	1432.0	1378.9
49.49	1426.0	1378.9
49.5	1434.0	1378.9
49.51	1462.0	1379.0
49.52	1450.0	1379.0
49.53	1421.0	1379.0
49.54	1412.0	1379.1
49.55	1423.0	1379.1
49.56	1461.0	1379.1
49.57	1455.0	1379.2
49.58	1448.0	1379.2
49.59	1468.0	1379.2
49.6	1475.0	1379.3
49.61	1476.0	1379.3
49.62	1468.0	1379.3
49.63	1455.0	1379.4
49.64	1460.0	1379.4
49.65	1449.0	1379.4
49.66	1434.0	1379.5
49.67	1429.0	1379.5
49.68	1419.0	1379.5
49.69	1414.0	1379.6
49.7	1434.0	1379.6
49.71	1421.0	1379.6
49.72	1398.0	1379.7
49.73	1405.0	1379.7
49.74	1432.0	1379.7
49.75	1448.0	1379.8
49.76	1437.0	1379.8
49.77	1455.0	1379.8
49.78	1441.0	1379.9
49.79	1413.0	1379.9
49.8	1419.0	1380.0
49.81	1427.0	1380.0
49.82	1437.0	1380.0
49.83	1412.0	1380.1
49.84	1411.0	1380.1
49.85	1452.0	1380.2
49.86	1459.0	1380.2
49.87	1443.0	1380.2
49.88	1443.0	1380.3
49.89	1448.0	1380.3
49.9	1433.0	1380.4
49.91	1424.0	1380.4
49.92	1435.0	1380.4
49.93	1452.0	1380.5
49.94	1442.0	1380.5
49.95	1412.0	1380.6
49.96	1401.0	1380.6
49.97	1427.0	1380.6
49.98	1431.0	1380.7
49.99	1401.0	1380.7
50.0	1395.0	1380.8
50.01	1430.0	1380.8
50.02	1445.0	1380.9
50.03	1406.0	1380.9
50.04	1390.0	1381.0
50.05	1425.0	1381.0
50.06	1424.0	1381.0
50.07	1421.0	1381.1
50.08	1426.0	1381.1
50.09	1421.0	1381.2
50.1	1436.0	1381.2
50.11	1436.0	1381.3
50.12	1410.0	1381.3
50.13	1386.0	1381.4
50.14	1411.0	1381.4
50.15	1450.0	1381.5
50.16	1440.0	1381.5
50.17	1417.0	1381.6
50.18	1414.0	1381.6
50.19	1411.0	1381.6
50.2	1419.0	1381.7
50.21	1413.0	1381.7
50.22	1422.0	1381.8
50.23	1479.0	1381.8
50.24	1492.0	1381.9
50.25	1467.0	1381.9
50.26	1451.0	1382.0
50.27	1445.0	1382.0
50.28	1468.0	1382.1
50.29	1470.0	1382.1
50.3	1434.0	1382.2
50.31	1414.0	1382.2
50.32	1403.0	1382.3
50.33	1396.0	1382.4
50.34	1415.0	1382.4
50.35	1432.0	1382.5
50.36	1414.0	1382.5
50.37	1413.0	1382.6
50.38	1422.0	1382.6
50.39	1408.0	1382.7
50.4	1392.0	1382.7
50.41	1403.0	1382.8
50.42	1420.0	1382.8
50.43	1409.0	1382.9
50.44	1411.0	1382.9
50.45	1419.0	1383.0
50.46	1419.0	1383.0
50.47	1436.0	1383.1
50.48	1440.0	1383.2
50.49	1433.0	1383.2
50.5	1447.0	1383.3
50.51	1453.0	1383.3
50.52	1415.0	1383.4
50.53	1406.0	1383.4
50.54	1427.0	1383.5
50.55	1400.0	1383.6
50.56	1384.0	1383.6
50.57	1426.0	1383.7
50.58	1439.0	1383.7
50.59	1417.0	1383.8
50.6	1420.0	1383.9
50.61	1421.0	1383.9
50.62	1434.0	1384.0
50.63	1444.0	1384.0
50.64	1452.0	1384.1
50.65	1438.0	1384.2
50.66	1388.0	1384.2
50.67	1381.0	1384.3
50.68	1401.0	1384.3
50.69	1424.0	1384.4
50.7	1467.0	1384.5
50.71	1462.0	1384.5
50.72	1432.0	1384.6
50.73	1410.0	1384.6
50.74	1384.0	1384.7
50.75	1376.0	1384.8
50.76	1380.0	1384.8
50.77	1411.0	1384.9
50.78	1473.0	1385.0
50.79	1459.0	1385.0
50.8	1421.0	1385.1
50.81	1426.0	1385.2
50.82	1404.0	1385.2
50.83	1404.0	1385.3
50.84	1408.0	1385.4
50.85	1391.0	1385.4
50.86	1393.0	1385.5
50.87	1387.0	1385.6
50.88	1389.0	1385.6
50.89	1448.0	1385.7
50.9	1472.0	1385.8
50.91	1429.0	1385.8
50.92	1403.0	1385.9
50.93	1405.0	1386.0
50.94	1410.0	1386.0
50.95	1431.0	1386.1
50.96	1433.0	1386.2
50.97	1405.0	1386.2
50.98	1419.0	1386.3
50.99	1464.0	1386.4
51.0	1461.0	1386.4
51.01	1442.0	1386.5
51.02	1442.0	1386.6
51.03	1415.0	1386.7
51.04	1387.0	1386.7
51.05	1379.0	1386.8
51.06	1407.0	1386.9
51.07	1451.0	1386.9
51.08	1445.0	1387.0
51.09	1391.0	1387.1
51.1	1382.0	1387.2
51.11	1408.0	1387.2
51.12	1388.0	1387.3
51.13	1397.0	1387.4
51.14	1407.0	1387.4
51.15	1385.0	1387.5
51.16	1417.0	1387.6
51.17	1461.0	1387.7
51.18	1457.0	1387.7
51.19	1445.0	1387.8
51.2	1448.0	1387.9
51.21	1436.0	1388.0
51.22	1395.0	1388.0
51.23	1405.0	1388.1
51.24	1451.0	1388.2
51.25	1452.0	1388.3
51.26	1434.0	1388.4
51.27	1418.0	1388.4
51.28	1426.0	1388.5
51.29	1443.0	1388.6
51.3	1448.0	1388.7
51.31	1425.0	1388.7
51.32	1375.0	1388.8
51.33	1388.0	1388.9
51.34	1427.0	1389.0
51.35	1439.0	1389.1
51.36	1439.0	1389.1
51.37	1418.0	1389.2
51.38	1402.0	1389.3
51.39	1431.0	1389.4
51.4	1474.0	1389.5
51.41	1481.0	1389.5
51.42	1474.0	1389.6
51.43	1460.0	1389.7
51.44	1459.0	1389.8
51.45	1449.0	1389.9
51.46	1450.0	1390.0
51.47	1455.0	1390.0
51.48	1456.0	1390.1
51.49	1480.0	1390.2
51.5	1466.0	1390.3
51.51	1455.0	1390.4
51.52	1472.0	1390.5
51.53	1466.0	1390.5
51.54	1454.0	1390.6
51.55	1457.0	1390.7
51.56	1461.0	1390.8
51.57	1458.0	1390.9
51.58	1469.0	1391.0
51.59	1493.0	1391.1
51.6	1505.0	1391.1
51.61	1502.0	1391.2
51.62	1476.0	1391.3
51.63	1485.0	1391.4
51.64	1507.0	1391.5
51.65	1492.0	1391.6
51.66	1495.0	1391.7
51.67	1488.0	1391.8
51.68	1468.0	1391.8
51.69	1462.0	1391.9
51.7	1427.0	1392.0
51.71	1430.0	1392.1
51.72	1488.0	1392.2
51.73	1497.0	1392.3
51.74	1478.0	1392.4
51.75	1468.0	1392.5
51.76	1455.0	1392.6
51.77	1459.0	1392.7
51.78	1472.0	1392.7
51.79	1465.0	1392.8
51.8	1457.0	1392.9
51.81	1452.0	1393.0
51.82	1434.0	1393.1
51.83	1422.0	1393.2
51.84	1439.0	1393.3
51.85	1466.0	1393.4
51.86	1449.0	1393.5
51.87	1447.0	1393.6
51.88	1448.0	1393.7
51.89	1437.0	1393.8
51.9	1447.0	1393.9
51.91	1453.0	1394.0
51.92	1450.0	1394.1
51.93	1447.0	1394.1
51.94	1427.0	1394.2
51.95	1425.0	1394.3
51.96	1434.0	1394.4
51.97	1441.0	1394.5
51.98	1452.0	1394.6
51.99	1437.0	1394.7
52.0	1425.0	1394.8
52.01	1412.0	1394.9
52.02	1408.0	1395.0
52.03	1405.0	1395.1
52.04	1432.0	1395.2
52.05	1444.0	1395.3
52.06	1426.0	1395.4
52.07	1440.0	1395.5
52.08	1421.0	1395.6
52.09	1444.0	1395.7
52.1	1488.0	1395.8
52.11	1450.0	1395.9
52.12	1413.0	1396.0
52.13	1430.0	1396.1
52.14	1469.0	1396.2
52.15	1469.0	1396.3
52.16	1464.0	1396.4
52.17	1452.0	1396.5
52.18	1427.0	1396.6
52.19	1427.0	1396.7
52.2	1425.0	1396.8
52.21	1420.0	1396.9
52.22	1441.0	1397.0
52.23	1470.0	1397.1
52.24	1467.0	1397.3
52.25	1435.0	1397.4
52.26	1428.0	1397.5
52.27	1454.0	1397.6
52.28	1484.0	1397.7
52.29	1449.0	1397.8
52.3	1426.0	1397.9
52.31	1446.0	1398.0
52.32	1448.0	1398.1
52.33	1443.0	1398.2
52.34	1423.0	1398.3
52.35	1430.0	1398.4
52.36	1456.0	1398.5
52.37	1455.0	1398.6
52.38	1442.0	1398.7
52.39	1444.0	1398.9
52.4	1435.0	1399.0
52.41	1416.0	1399.1
52.42	1403.0	1399.2
52.43	1420.0	1399.3
52.44	1462.0	1399.4
52.45	1474.0	1399.5
52.46	1450.0	1399.6
52.47	1420.0	1399.7
52.48	1395.0	1399.8
52.49	1408.0	1400.0
52.5	1426.0	1400.1
52.51	1420.0	1400.2
52.52	1433.0	1400.3
52.53	1427.0	1400.4
52.54	1421.0	1400.5
52.55	1461.0	1400.6
52.56	1487.0	1400.7
52.57	1472.0	1400.9
52.58	1453.0	1401.0
52.59	1451.0	1401.1
52.6	1450.0	1401.2
52.61	1457.0	1401.3
52.62	1473.0	1401.4
52.63	1468.0	1401.5
52.64	1435.0	1401.7
52.65	1437.0	1401.8
52.66	1459.0	1401.9
52.67	1477.0	1402.0
52.68	1448.0	1402.1
52.69	1412.0	1402.2
52.7	1429.0	1402.4
52.71	1443.0	1402.5
52.72	1444.0	1402.6
52.73	1433.0	1402.7
52.74	1429.0	1402.8
52.75	1458.0	1403.0
52.76	1477.0	1403.1
52.77	1461.0	1403.2
52.78	1462.0	1403.3
52.79	1453.0	1403.4
52.8	1436.0	1403.6
52.81	1441.0	1403.7
52.82	1432.0	1403.8
52.83	1436.0	1403.9
52.84	1451.0	1404.0
52.85	1438.0	1404.2
52.86	1429.0	1404.3
52.87	1444.0	1404.4
52.88	1446.0	1404.5
52.89	1432.0	1404.6
52.9	1405.0	1404.8
52.91	1399.0	1404.9
52.92	1437.0	1405.0
52.93	1429.0	1405.1
52.94	1433.0	1405.3
52.95	1457.0	1405.4
52.96	1438.0	1405.5
52.97	1438.0	1405.6
52.98	1447.0	1405.8
52.99	1427.0	1405.9
53.0	1405.0	1406.0
53.01	1437.0	1406.1
53.02	1461.0	1406.3
53.03	1482.0	1406.4
53.04	1471.0	1406.5
53.05	1463.0	1406.7
53.06	1448.0	1406.8
53.07	1420.0	1406.9
53.08	1418.0	1407.0
53.09	1430.0	1407.2
53.1	1474.0	1407.3
53.11	1471.0	1407.4
53.12	1395.0	1407.6
53.13	1387.0	1407.7
53.14	1411.0	1407.8
53.15	1416.0	1407.9
53.16	1433.0	1408.1
53.17	1453.0	1408.2
53.18	1448.0	1408.3
53.19	1423.0	1408.5
53.2	1422.0	1408.6
53.21	1438.0	1408.7
53.22	1436.0	1408.9
53.23	1429.0	1409.0
53.24	1439.0	1409.1
53.25	1457.0	1409.3
53.26	1479.0	1409.4
53.27	1474.0	1409.5
53.28	1465.0	1409.7
53.29	1445.0	1409.8
53.3	1405.0	1409.9
53.31	1411.0	1410.1
53.32	1445.0	1410.2
53.33	1430.0	1410.3
53.34	1432.0	1410.5
53.35	1475.0	1410.6
53.36	1501.0	1410.8
53.37	1492.0	1410.9
53.38	1466.0	1411.0
53.39	1454.0	1411.2
53.4	1438.0	1411.3
53.41	1428.0	1411.4
53.42	1454.0	1411.6
53.43	1451.0	1411.7
53.44	1455.0	1411.9
53.45	1459.0	1412.0
53.46	1489.0	1412.1
53.47	1507.0	1412.3
53.48	1478.0	1412.4
53.49	1460.0	1412.5
53.5	1451.0	1412.7
53.51	1452.0	1412.8
53.52	1462.0	1413.0
53.53	1459.0	1413.1
53.54	1453.0	1413.3
53.55	1441.0	1413.4
53.56	1439.0	1413.5
53.57	1467.0	1413.7
53.58	1462.0	1413.8
53.59	1422.0	1414.0
53.6	1405.0	1414.1
53.61	1428.0	1414.2
53.62	1447.0	1414.4
53.63	1438.0	1414.5
53.64	1452.0	1414.7
53.65	1485.0	1414.8
53.66	1502.0	1415.0
53.67	1498.0	1415.1
53.68	1477.0	1415.2
53.69	1446.0	1415.4
53.7	1446.0	1415.5
53.71	1478.0	1415.7
53.72	1529.0	1415.8
53.73	1529.0	1416.0
53.74	1476.0	1416.1
53.75	1477.0	1416.3
53.76	1493.0	1416.4
53.77	1463.0	1416.6
53.78	1430.0	1416.7
53.79	1453.0	1416.8
53.8	1498.0	1417.0
53.81	1539.0	1417.1
53.82	1563.0	1417.3
53.83	1521.0	1417.4
53.84	1495.0	1417.6
53.85	1494.0	1417.7
53.86	1506.0	1417.9
53.87	1510.0	1418.0
53.88	1508.0	1418.2
53.89	1513.0	1418.3
53.9	1509.0	1418.5
53.91	1510.0	1418.6
53.92	1510.0	1418.8
53.93	1493.0	1418.9
53.94	1501.0	1419.1
53.95	1599.0	1419.2
53.96	1667.0	1419.4
53.97	1660.0	1419.5
53.98	1653.0	1419.7
53.99	1659.0	1419.8
54.0	1665.0	1420.0
54.01	1703.0	1420.1
54.02	1671.0	1420.3
54.03	1660.0	1420.4
54.04	1672.0	1420.6
54.05	1647.0	1420.7
54.06	1641.0	1420.9
54.07	1651.0	1421.0
54.08	1651.0	1421.2
54.09	1636.0	1421.3
54.1	1600.0	1421.5
54.11	1625.0	1421.6
54.12	1655.0	1421.8
54.13	1636.0	1422.0
54.14	1617.0	1422.1
54.15	1622.0	1422.3
54.16	1597.0	1422.4
54.17	1585.0	1422.6
54.18	1636.0	1422.7
54.19	1648.0	1422.9
54.2	1622.0	1423.0
54.21	1580.0	1423.2
54.22	1554.0	1423.3
54.23	1561.0	1423.5
54.24	1546.0	1423.7
54.25	1552.0	1423.8
54.26	1533.0	1424.0
54.27	1497.0	1424.1
54.28	1496.0	1424.3
54.29	1527.0	1424.4
54.3	1503.0	1424.6
54.31	1472.0	1424.7
54.32	1470.0	1424.9
54.33	1480.0	1425.1
54.34	1477.0	1425.2
54.35	1484.0	1425.4
54.36	1553.0	1425.5
54.37	1577.0	1425.7
54.38	1517.0	1425.8
54.39	1457.0	1426.0
54.4	1458.0	1426.2
54.41	1495.0	1426.3
54.42	1505.0	1426.5
54.43	1440.0	1426.6
54.44	1434.0	1426.8
54.45	1471.0	1426.9
54.46	1493.0	1427.1
54.47	1487.0	1427.3
54.48	1486.0	1427.4
54.49	1497.0	1427.6
54.5	1497.0	1427.7
54.51	1496.0	1427.9
54.52	1480.0	1428.1
54.53	1447.0	1428.2
54.54	1445.0	1428.4
54.55	1460.0	1428.5
54.56	1457.0	1428.7
54.57	1470.0	1428.9
54.58	1496.0	1429.0
54.59	1499.0	1429.2
54.6	1459.0	1429.3
54.61	1456.0	1429.5
54.62	1486.0	1429.7
54.63	1519.0	1429.8
54.64	1483.0	1430.0
54.65	1453.0	1430.1
54.66	1458.0	1430.3
54.67	1457.0	1430.5
54.68	1457.0	1430.6
54.69	1458.0	1430.8
54.7	1443.0	1431.0
54.71	1453.0	1431.1
54.72	1443.0	1431.3
54.73	1447.0	1431.4
54.74	1467.0	1431.6
54.75	1479.0	1431.8
54.76	1446.0	1431.9
54.77	1419.0	1432.1
54.78	1469.0	1432.2
54.79	1504.0	1432.4
54.8	1510.0	1432.6
54.81	1518.0	1432.7
54.82	1486.0	1432.9
54.83	1446.0	1433.1
54.84	1470.0	1433.2
54.85	1508.0	1433.4
54.86	1490.0	1433.5
54.87	1456.0	1433.7
54.88	1449.0	1433.9
54.89	1456.0	1434.0
54.9	1451.0	1434.2
54.91	1451.0	1434.4
54.92	1441.0	1434.5
54.93	1436.0	1434.7
54.94	1463.0	1434.9
54.95	1493.0	1435.0
54.96	1487.0	1435.2
54.97	1435.0	1435.4
54.98	1429.0	1435.5
54.99	1437.0	1435.7
55.0	1423.0	1435.8
55.01	1445.0	1436.0
55.02	1448.0	1436.2
55.03	1461.0	1436.3
55.04	1468.0	1436.5
55.05	1475.0	1436.7
55.06	1502.0	1436.8
55.07	1490.0	1437.0
55.08	1454.0	1437.2
55.09	1471.0	1437.3
55.1	1465.0	1437.5
55.11	1446.0	1437.7
55.12	1467.0	1437.8
55.13	1474.0	1438.0
55.14	1456.0	1438.2
55.15	1457.0	1438.3
55.16	1467.0	1438.5
55.17	1484.0	1438.6
55.18	1497.0	1438.8
55.19	1491.0	1439.0
55.2	1455.0	1439.1
55.21	1450.0	1439.3
55.22	1486.0	1439.5
55.23	1496.0	1439.6
55.24	1500.0	1439.8
55.25	1454.0	1440.0
55.26	1437.0	1440.1
55.27	1423.0	1440.3
55.28	1462.0	1440.5
55.29	1453.0	1440.6
55.3	1433.0	1440.8
55.31	1447.0	1441.0
55.32	1464.0	1441.1
55.33	1439.0	1441.3
55.34	1441.0	1441.5
55.35	1424.0	1441.6
55.36	1402.0	1441.8
55.37	1441.0	1442.0
55.38	1477.0	1442.1
55.39	1469.0	1442.3
55.4	1456.0	1442.5
55.41	1447.0	1442.6
55.42	1494.0	1442.8
55.43	1493.0	1443.0
55.44	1480.0	1443.1
55.45	1469.0	1443.3
55.46	1478.0	1443.5
55.47	1454.0	1443.6
55.48	1454.0	1443.8
55.49	1494.0	1444.0
55.5	1482.0	1444.1
55.51	1440.0	1444.3
55.52	1431.0	1444.5
55.53	1465.0	1444.6
55.54	1467.0	1444.8
55.55	1439.0	1445.0
55.56	1442.0	1445.1
55.57	1455.0	1445.3
55.58	1446.0	1445.5
55.59	1452.0	1445.6
55.6	1468.0	1445.8
55.61	1449.0	1446.0
55.62	1447.0	1446.1
55.63	1449.0	1446.3
55.64	1445.0	1446.5
55.65	1441.0	1446.6
55.66	1450.0	1446.8
55.67	1424.0	1447.0
55.68	1410.0	1447.1
55.69	1409.0	1447.3
55.7	1449.0	1447.5
55.71	1468.0	1447.6
55.72	1436.0	1447.8
55.73	1450.0	1448.0
55.74	1469.0	1448.1
55.75	1427.0	1448.3
55.76	1423.0	1448.5
55.77	1452.0	1448.6
55.78	1494.0	1448.8
55.79	1505.0	1449.0
55.8	1486.0	1449.1
55.81	1481.0	1449.3
55.82	1463.0	1449.5
55.83	1433.0	1449.6
55.84	1417.0	1449.8
55.85	1426.0	1450.0
55.86	1465.0	1450.1
55.87	1470.0	1450.3
55.88	1470.0	1450.5
55.89	1472.0	1450.6
55.9	1456.0	1450.8
55.91	1454.0	1451.0
55.92	1478.0	1451.1
55.93	1448.0	1451.3
55.94	1464.0	1451.5
55.95	1480.0	1451.6
55.96	1475.0	1451.8
55.97	1452.0	1452.0
55.98	1448.0	1452.1
55.99	1458.0	1452.3
56.0	1477.0	1452.5
56.01	1499.0	1452.6
56.02	1495.0	1452.8
56.03	1500.0	1453.0
56.04	1524.0	1453.1
56.05	1525.0	1453.3
56.06	1503.0	1453.5
56.07	1478.0	1453.6
56.08	1513.0	1453.8
56.09	1530.0	1454.0
56.1	1479.0	1454.1
56.11	1458.0	1454.3
56.12	1479.0	1454.5
56.13	1487.0	1454.6
56.14	1462.0	1454.8
56.15	1453.0	1455.0
56.16	1475.0	1455.1
56.17	1462.0	1455.3
56.18	1459.0	1455.5
56.19	1461.0	1455.6
56.2	1465.0	1455.8
56.21	1463.0	1456.0
56.22	1442.0	1456.1
56.23	1465.0	1456.3
56.24	1470.0	1456.5
56.25	1443.0	1456.6
56.26	1421.0	1456.8
56.27	1438.0	1456.9
56.28	1489.0	1457.1
56.29	1492.0	1457.3
56.3	1479.0	1457.4
56.31	1490.0	1457.6
56.32	1464.0	1457.8
56.33	1461.0	1457.9
56.34	1497.0	1458.1
56.35	1511.0	1458.3
56.36	1512.0	1458.4
56.37	1497.0	1458.6
56.38	1495.0	1458.8
56.39	1487.0	1458.9
56.4	1495.0	1459.1
56.41	1504.0	1459.2
56.42	1497.0	1459.4
56.43	1469.0	1459.6
56.44	1485.0	1459.7
56.45	1493.0	1459.9
56.46	1481.0	1460.1
56.47	1488.0	1460.2
56.48	1517.0	1460.4
56.49	1512.0	1460.6
56.5	1502.0	1460.7
56.51	1532.0	1460.9
56.52	1507.0	1461.0
56.53	1468.0	1461.2
56.54	1448.0	1461.4
56.55	1432.0	1461.5
56.56	1424.0	1461.7
56.57	1458.0	1461.9
56.58	1501.0	1462.0
56.59	1515.0	1462.2
56.6	1524.0	1462.3
56.61	1536.0	1462.5
56.62	1511.0	1462.7
56.63	1516.0	1462.8
56.64	1510.0	1463.0
56.65	1481.0	1463.1
56.66	1488.0	1463.3
56.67	1489.0	1463.5
56.68	1478.0	1463.6
56.69	1479.0	1463.8
56.7	1456.0	1464.0
56.71	1469.0	1464.1
56.72	1498.0	1464.3
56.73	1493.0	1464.4
56.74	1479.0	1464.6
56.75	1466.0	1464.8
56.76	1503.0	1464.9
56.77	1502.0	1465.1
56.78	1475.0	1465.2
56.79	1480.0	1465.4
56.8	1508.0	1465.6
56.81	1506.0	1465.7
56.82	1530.0	1465.9
56.83	1531.0	1466.0
56.84	1528.0	1466.2
56.85	1554.0	1466.4
56.86	1537.0	1466.5
56.87	1485.0	1466.7
56.88	1487.0	1466.8
56.89	1533.0	1467.0
56.9	1545.0	1467.1
56.91	1523.0	1467.3
56.92	1503.0	1467.5
56.93	1505.0	1467.6
56.94	1470.0	1467.8
56.95	1479.0	1467.9
56.96	1520.0	1468.1
56.97	1543.0	1468.2
56.98	1577.0	1468.4
56.99	1556.0	1468.6
57.0	1527.0	1468.7
57.01	1533.0	1468.9
57.02	1564.0	1469.0
57.03	1568.0	1469.2
57.04	1515.0	1469.3
57.05	1565.0	1469.5
57.06	1616.0	1469.7
57.07	1590.0	1469.8
57.08	1612.0	1470.0
57.09	1623.0	1470.1
57.1	1584.0	1470.3
57.11	1584.0	1470.4
57.12	1585.0	1470.6
57.13	1580.0	1470.7
57.14	1559.0	1470.9
57.15	1556.0	1471.1
57.16	1569.0	1471.2
57.17	1594.0	1471.4
57.18	1585.0	1471.5
57.19	1593.0	1471.7
57.2	1578.0	1471.8
57.21	1563.0	1472.0
57.22	1589.0	1472.1
57.23	1619.0	1472.3
57.24	1637.0	1472.4
57.25	1618.0	1472.6
57.26	1637.0	1472.7
57.27	1591.0	1472.9
57.28	1593.0	1473.0
57.29	1571.0	1473.2
57.3	1583.0	1473.3
57.31	1607.0	1473.5
57.32	1580.0	1473.6
57.33	1584.0	1473.8
57.34	1575.0	1474.0
57.35	1571.0	1474.1
57.36	1530.0	1474.3
57.37	1520.0	1474.4
57.38	1564.0	1474.6
57.39	1602.0	1474.7
57.4	1598.0	1474.9
57.41	1578.0	1475.0
57.42	1583.0	1475.2
57.43	1588.0	1475.3
57.44	1593.0	1475.5
57.45	1584.0	1475.6
57.46	1589.0	1475.7
57.47	1586.0	1475.9
57.48	1586.0	1476.0
57.49	1576.0	1476.2
57.5	1558.0	1476.3
57.51	1568.0	1476.5
57.52	1581.0	1476.6
57.53	1570.0	1476.8
57.54	1589.0	1476.9
57.55	1596.0	1477.1
57.56	1545.0	1477.2
57.57	1525.0	1477.4
57.58	1585.0	1477.5
57.59	1546.0	1477.7
57.6	1569.0	1477.8
57.61	1592.0	1478.0
57.62	1571.0	1478.1
57.63	1602.0	1478.2
57.64	1557.0	1478.4
57.65	1557.0	1478.5
57.66	1602.0	1478.7
57.67	1609.0	1478.8
57.68	1579.0	1479.0
57.69	1563.0	1479.1
57.7	1563.0	1479.2
57.71	1583.0	1479.4
57.72	1576.0	1479.5
57.73	1559.0	1479.7
57.74	1540.0	1479.8
57.75	1523.0	1480.0
57.76	1594.0	1480.1
57.77	1569.0	1480.2
57.78	1546.0	1480.4
57.79	1564.0	1480.5
57.8	1607.0	1480.7
57.81	1596.0	1480.8
57.82	1545.0	1481.0
57.83	1566.0	1481.1
57.84	1554.0	1481.2
57.85	1566.0	1481.4
57.86	1553.0	1481.5
57.87	1548.0	1481.6
57.88	1569.0	1481.8
57.89	1580.0	1481.9
57.9	1575.0	1482.1
57.91	1553.0	1482.2
57.92	1546.0	1482.3
57.93	1544.0	1482.5
57.94	1569.0	1482.6
57.95	1574.0	1482.8
57.96	1577.0	1482.9
57.97	1592.0	1483.0
57.98	1571.0	1483.2
57.99	1549.0	1483.3
58.0	1584.0	1483.4
58.01	1581.0	1483.6
58.02	1578.0	1483.7
58.03	1595.0	1483.8
58.04	1579.0	1484.0
58.05	1565.0	1484.1
58.06	1550.0	1484.2
58.07	1543.0	1484.4
58.08	1566.0	1484.5
58.09	1601.0	1484.6
58.1	1570.0	1484.8
58.11	1568.0	1484.9
58.12	1585.0	1485.0
58.13	1616.0	1485.2
58.14	1617.0	1485.3
58.15	1627.0	1485.4
58.16	1630.0	1485.6
58.17	1622.0	1485.7
58.18	1640.0	1485.8
58.19	1654.0	1486.0
58.2	1654.0	1486.1
58.21	1685.0	1486.2
58.22	1724.0	1486.4
58.23	1722.0	1486.5
58.24	1748.0	1486.6
58.25	1737.0	1486.7
58.26	1711.0	1486.9
58.27	1742.0	1487.0
58.28	1771.0	1487.1
58.29	1765.0	1487.3
58.3	1740.0	1487.4
58.31	1755.0	1487.5
58.32	1770.0	1487.6
58.33	1738.0	1487.8
58.34	1727.0	1487.9
58.35	1718.0	1488.0
58.36	1707.0	1488.1
58.37	1741.0	1488.3
58.38	1761.0	1488.4
58.39	1752.0	1488.5
58.4	1722.0	1488.6
58.41	1680.0	1488.8
58.42	1705.0	1488.9
58.43	1714.0	1489.0
58.44	1721.0	1489.1
58.45	1728.0	1489.3
58.46	1718.0	1489.4
58.47	1729.0	1489.5
58.48	1703.0	1489.6
58.49	1707.0	1489.7
58.5	1710.0	1489.9
58.51	1687.0	1490.0
58.52	1684.0	1490.1
58.53	1691.0	1490.2
58.54	1715.0	1490.3
58.55	1750.0	1490.5
58.56	1768.0	1490.6
58.57	1763.0	1490.7
58.58	1753.0	1490.8
58.59	1752.0	1490.9
58.6	1776.0	1491.1
58.61	1745.0	1491.2
58.62	1730.0	1491.3
58.63	1748.0	1491.4
58.64	1806.0	1491.5
58.65	1782.0	1491.6
58.66	1774.0	1491.8
58.67	1817.0	1491.9
58.68	1818.0	1492.0
58.69	1806.0	1492.1
58.7	1849.0	1492.2
58.71	1898.0	1492.3
58.72	1907.0	1492.4
58.73	1940.0	1492.6
58.74	1935.0	1492.7
58.75	1964.0	1492.8
58.76	2022.0	1492.9
58.77	2006.0	1493.0
58.78	2027.0	1493.1
58.79	2030.0	1493.2
58.8	2018.0	1493.3
58.81	2109.0	1493.4
58.82	2147.0	1493.6
58.83	2190.0	1493.7
58.84	2237.0	1493.8
58.85	2227.0	1493.9
58.86	2226.0	1494.0
58.87	2205.0	1494.1
58.88	2199.0	1494.2
58.89	2185.0	1494.3
58.9	2185.0	1494.4
58.91	2205.0	1494.5
58.92	2241.0	1494.6
58.93	2214.0	1494.7
58.94	2146.0	1494.8
58.95	2123.0	1495.0
58.96	2110.0	1495.1
58.97	2125.0	1495.2
58.98	2142.0	1495.3
58.99	2141.0	1495.4
59.0	2122.0	1495.5
59.01	2090.0	1495.6
59.02	2073.0	1495.7
59.03	2024.0	1495.8
59.04	1955.0	1495.9
59.05	1926.0	1496.0
59.06	1896.0	1496.1
59.07	1979.0	1496.2
59.08	1944.0	1496.3
59.09	1938.0	1496.4
59.1	1904.0	1496.5
59.11	1902.0	1496.6
59.12	1887.0	1496.7
59.13	1878.0	1496.8
59.14	1889.0	1496.9
59.15	1805.0	1497.0
59.16	1784.0	1497.1
59.17	1773.0	1497.2
59.18	1783.0	1497.3
59.19	1753.0	1497.4
59.2	1738.0	1497.5
59.21	1716.0	1497.6
59.22	1686.0	1497.6
59.23	1688.0	1497.7
59.24	1692.0	1497.8
59.25	1672.0	1497.9
59.26	1686.0	1498.0
59.27	1664.0	1498.1
59.28	1629.0	1498.2
59.29	1590.0	1498.3
59.3	1623.0	1498.4
59.31	1650.0	1498.5
59.32	1602.0	1498.6
59.33	1652.0	1498.7
59.34	1648.0	1498.8
59.35	1645.0	1498.8
59.36	1613.0	1498.9
59.37	1583.0	1499.0
59.38	1612.0	1499.1
59.39	1602.0	1499.2
59.4	1587.0	1499.3
59.41	1584.0	1499.4
59.42	1610.0	1499.5
59.43	1635.0	1499.5
59.44	1637.0	1499.6
59.45	1617.0	1499.7
59.46	1593.0	1499.8
59.47	1617.0	1499.9
59.48	1611.0	1500.0
59.49	1526.0	1500.0
59.5	1556.0	1500.1
59.51	1544.0	1500.2
59.52	1598.0	1500.3
59.53	1550.0	1500.4
59.54	1545.0	1500.5
59.55	1566.0	1500.5
59.56	1572.0	1500.6
59.57	1584.0	1500.7
59.58	1579.0	1500.8
59.59	1554.0	1500.9
59.6	1543.0	1500.9
59.61	1568.0	1501.0
59.62	1584.0	1501.1
59.63	1578.0	1501.2
59.64	1563.0	1501.2
59.65	1566.0	1501.3
59.66	1564.0	1501.4
59.67	1511.0	1501.5
59.68	1527.0	1501.5
59.69	1537.0	1501.6
59.7	1545.0	1501.7
59.71	1578.0	1501.8
59.72	1547.0	1501.8
59.73	1541.0	1501.9
59.74	1526.0	1502.0
59.75	1558.0	1502.1
59.76	1572.0	1502.1
59.77	1570.0	1502.2
59.78	1544.0	1502.3
59.79	1532.0	1502.3
59.8	1553.0	1502.4
59.81	1594.0	1502.5
59.82	1544.0	1502.5
59.83	1491.0	1502.6
59.84	1523.0	1502.7
59.85	1541.0	1502.7
59.86	1575.0	1502.8
59.87	1573.0	1502.9
59.88	1556.0	1502.9
59.89	1522.0	1503.0
59.9	1529.0	1503.1
59.91	1539.0	1503.1
59.92	1509.0	1503.2
59.93	1508.0	1503.3
59.94	1491.0	1503.3
59.95	1496.0	1503.4
59.96	1507.0	1503.4
59.97	1489.0	1503.5
59.98	1532.0	1503.6
59.99	1552.0	1503.6
60.0	1559.0	1503.7
60.01	1530.0	1503.7
60.02	1519.0	1503.8
60.03	1508.0	1503.9
60.04	1505.0	1503.9
60.05	1504.0	1504.0
60.06	1530.0	1504.0
60.07	1547.0	1504.1
60.08	1508.0	1504.1
60.09	1514.0	1504.2
60.1	1595.0	1504.3
60.11	1601.0	1504.3
60.12	1544.0	1504.4
60.13	1530.0	1504.4
60.14	1513.0	1504.5
60.15	1494.0	1504.5
60.16	1517.0	1504.6
60.17	1557.0	1504.6
60.18	1550.0	1504.7
60.19	1532.0	1504.7
60.2	1527.0	1504.8
60.21	1542.0	1504.8
60.22	1573.0	1504.9
60.23	1553.0	1504.9
60.24	1558.0	1505.0
60.25	1580.0	1505.0
60.26	1564.0	1505.1
60.27	1537.0	1505.1
60.28	1580.0	1505.2
60.29	1618.0	1505.2
60.3	1571.0	1505.2
60.31	1561.0	1505.3
60.32	1581.0	1505.3
60.33	1557.0	1505.4
60.34	1557.0	1505.4
60.35	1574.0	1505.5
60.36	1543.0	1505.5
60.37	1503.0	1505.5
60.38	1518.0	1505.6
60.39	1534.0	1505.6
60.4	1526.0	1505.7
60.41	1524.0	1505.7
60.42	1492.0	1505.7
60.43	1542.0	1505.8
60.44	1558.0	1505.8
60.45	1589.0	1505.9
60.46	1559.0	1505.9
60.47	1539.0	1505.9
60.48	1546.0	1506.0
60.49	1523.0	1506.0
60.5	1539.0	1506.0
60.51	1562.0	1506.1
60.52	1553.0	1506.1
60.53	1574.0	1506.2
60.54	1580.0	1506.2
60.55	1559.0	1506.2
60.56	1530.0	1506.3
60.57	1555.0	1506.3
60.58	1574.0	1506.3
60.59	1561.0	1506.3
60.6	1569.0	1506.4
60.61	1562.0	1506.4
60.62	1548.0	1506.4
60.63	1559.0	1506.5
60.64	1556.0	1506.5
60.65	1585.0	1506.5
60.66	1589.0	1506.6
60.67	1562.0	1506.6
60.68	1560.0	1506.6
60.69	1590.0	1506.6
60.7	1603.0	1506.7
60.71	1559.0	1506.7
60.72	1569.0	1506.7
60.73	1623.0	1506.7
60.74	1604.0	1506.8
60.75	1535.0	1506.8
60.76	1536.0	1506.8
60.77	1606.0	1506.8
60.78	1591.0	1506.9
60.79	1608.0	1506.9
60.8	1610.0	1506.9
60.81	1615.0	1506.9
60.82	1632.0	1507.0
60.83	1603.0	1507.0
60.84	1603.0	1507.0
60.85	1620.0	1507.0
60.86	1616.0	1507.0
60.87	1649.0	1507.1
60.88	1616.0	1507.1
60.89	1609.0	1507.1
60.9	1604.0	1507.1
60.91	1622.0	1507.1
60.92	1651.0	1507.1
60.93	1646.0	1507.2
60.94	1668.0	1507.2
60.95	1714.0	1507.2
60.96	1698.0	1507.2
60.97	1701.0	1507.2
60.98	1677.0	1507.2
60.99	1693.0	1507.3
61.0	1691.0	1507.3
61.01	1769.0	1507.3
61.02	1747.0	1507.3
61.03	1764.0	1507.3
61.04	1721.0	1507.3
61.05	1731.0	1507.3
61.06	1748.0	1507.3
61.07	1778.0	1507.4
61.08	1855.0	1507.4
61.09	1887.0	1507.4
61.1	1854.0	1507.4
61.11	1854.0	1507.4
61.12	1911.0	1507.4
61.13	1953.0	1507.4
61.14	2010.0	1507.4
61.15	2004.0	1507.4
61.16	1989.0	1507.4
61.17	2070.0	1507.4
61.18	2167.0	1507.4
61.19	2209.0	1507.5
61.2	2259.0	1507.5
61.21	2364.0	1507.5
61.22	2470.0	1507.5
61.23	2529.0	1507.5
61.24	2618.0	1507.5
61.25	2793.0	1507.5
61.26	2867.0	1507.5
61.27	3023.0	1507.5
61.28	3156.0	1507.5
61.29	3272.0	1507.5
61.3	3474.0	1507.5
61.31	3637.0	1507.5
61.32	3754.0	1507.5
61.33	3728.0	1507.5
61.34	3674.0	1507.5
61.35	3716.0	1507.5
61.36	3650.0	1507.5
61.37	3598.0	1507.5
61.38	3519.0	1507.5
61.39	3347.0	1507.5
61.4	3207.0	1507.5
61.41	3073.0	1507.5
61.42	2984.0	1507.5
61.43	2855.0	1507.5
61.44	2873.0	1507.5
61.45	2863.0	1507.5
61.46	2882.0	1507.5
61.47	2907.0	1507.5
61.48	2879.0	1507.5
61.49	2977.0	1507.4
61.5	2929.0	1507.4
61.51	2882.0	1507.4
61.52	2830.0	1507.4
61.53	2765.0	1507.4
61.54	2646.0	1507.4
61.55	2511.0	1507.4
61.56	2424.0	1507.4
61.57	2323.0	1507.4
61.58	2206.0	1507.4
61.59	2152.0	1507.4
61.6	2093.0	1507.4
61.61	2089.0	1507.3
61.62	2066.0	1507.3
61.63	2043.0	1507.3
61.64	1999.0	1507.3
61.65	1926.0	1507.3
61.66	1906.0	1507.3
61.67	1898.0	1507.3
61.68	1837.0	1507.3
61.69	1857.0	1507.2
61.7	1827.0	1507.2
61.71	1812.0	1507.2
61.72	1775.0	1507.2
61.73	1784.0	1507.2
61.74	1855.0	1507.2
61.75	1848.0	1507.2
61.76	1785.0	1507.1
61.77	1779.0	1507.1
61.78	1749.0	1507.1
61.79	1764.0	1507.1
61.8	1779.0	1507.1
61.81	1741.0	1507.1
61.82	1780.0	1507.0
61.83	1773.0	1507.0
61.84	1764.0	1507.0
61.85	1791.0	1507.0
61.86	1794.0	1507.0
61.87	1792.0	1506.9
61.88	1848.0	1506.9
61.89	1862.0	1506.9
61.9	1889.0	1506.9
61.91	1898.0	1506.9
61.92	1931.0	1506.8
61.93	1887.0	1506.8
61.94	1897.0	1506.8
61.95	1927.0	1506.8
61.96	1932.0	1506.7
61.97	1935.0	1506.7
61.98	1920.0	1506.7
61.99	1926.0	1506.7
62.0	1896.0	1506.7
62.01	1933.0	1506.6
62.02	1891.0	1506.6
62.03	1874.0	1506.6
62.04	1828.0	1506.6
62.05	1803.0	1506.5
62.06	1845.0	1506.5
62.07	1849.0	1506.5
62.08	1835.0	1506.4
62.09	1809.0	1506.4
62.1	1814.0	1506.4
62.11	1860.0	1506.4
62.12	1876.0	1506.3
62.13	1855.0	1506.3
62.14	1779.0	1506.3
62.15	1798.0	1506.2
62.16	1787.0	1506.2
62.17	1746.0	1506.2
62.18	1719.0	1506.2
62.19	1670.0	1506.1
62.2	1677.0	1506.1
62.21	1740.0	1506.1
62.22	1734.0	1506.0
62.23	1699.0	1506.0
62.24	1714.0	1506.0
62.25	1695.0	1505.9
62.26	1708.0	1505.9
62.27	1717.0	1505.9
62.28	1688.0	1505.8
62.29	1673.0	1505.8
62.3	1656.0	1505.8
62.31	1617.0	1505.7
62.32	1614.0	1505.7
62.33	1607.0	1505.7
62.34	1648.0	1505.6
62.35	1636.0	1505.6
62.36	1647.0	1505.5
62.37	1660.0	1505.5
62.38	1610.0	1505.5
62.39	1574.0	1505.4
62.4	1613.0	1505.4
62.41	1618.0	1505.4
62.42	1582.0	1505.3
62.43	1652.0	1505.3
62.44	1622.0	1505.2
62.45	1633.0	1505.2
62.46	1589.0	1505.2
62.47	1592.0	1505.1
62.48	1655.0	1505.1
62.49	1660.0	1505.0
62.5	1619.0	1505.0
62.51	1670.0	1505.0
62.52	1644.0	1504.9
62.53	1602.0	1504.9
62.54	1594.0	1504.8
62.55	1583.0	1504.8
62.56	1532.0	1504.7
62.57	1577.0	1504.7
62.58	1608.0	1504.7
62.59	1597.0	1504.6
62.6	1586.0	1504.6
62.61	1606.0	1504.5
62.62	1637.0	1504.5
62.63	1631.0	1504.4
62.64	1645.0	1504.4
62.65	1610.0	1504.3
62.66	1607.0	1504.3
62.67	1628.0	1504.3
62.68	1589.0	1504.2
62.69	1609.0	1504.2
62.7	1610.0	1504.1
62.71	1603.0	1504.1
62.72	1562.0	1504.0
62.73	1584.0	1504.0
62.74	1599.0	1503.9
62.75	1615.0	1503.9
62.76	1655.0	1503.8
62.77	1597.0	1503.8
62.78	1573.0	1503.7
62.79	1579.0	1503.7
62.8	1584.0	1503.6
62.81	1587.0	1503.6
62.82	1620.0	1503.5
62.83	1628.0	1503.5
62.84	1624.0	1503.4
62.85	1587.0	1503.4
62.86	1646.0	1503.3
62.87	1639.0	1503.3
62.88	1631.0	1503.2
62.89	1603.0	1503.2
62.9	1612.0	1503.1
62.91	1618.0	1503.1
62.92	1624.0	1503.0
62.93	1658.0	1502.9
62.94	1651.0	1502.9
62.95	1680.0	1502.8
62.96	1655.0	1502.8
62.97	1615.0	1502.7
62.98	1627.0	1502.7
62.99	1652.0	1502.6
63.0	1666.0	1502.6
63.01	1613.0	1502.5
63.02	1611.0	1502.5
63.03	1645.0	1502.4
63.04	1637.0	1502.3
63.05	1638.0	1502.3
63.06	1605.0	1502.2
63.07	1600.0	1502.2
63.08	1628.0	1502.1
63.09	1615.0	1502.1
63.1	1650.0	1502.0
63.11	1625.0	1501.9
63.12	1603.0	1501.9
63.13	1612.0	1501.8
63.14	1595.0	1501.8
63.15	1655.0	1501.7
63.16	1675.0	1501.6
63.17	1681.0	1501.6
63.18	1672.0	1501.5
63.19	1665.0	1501.5
63.2	1659.0	1501.4
63.21	1661.0	1501.3
63.22	1657.0	1501.3
63.23	1663.0	1501.2
63.24	1670.0	1501.1
63.25	1631.0	1501.1
63.26	1592.0	1501.0
63.27	1604.0	1501.0
63.28	1643.0	1500.9
63.29	1669.0	1500.8
63.3	1617.0	1500.8
63.31	1617.0	1500.7
63.32	1610.0	1500.6
63.33	1541.0	1500.6
63.34	1600.0	1500.5
63.35	1571.0	1500.4
63.36	1664.0	1500.4
63.37	1610.0	1500.3
63.38	1547.0	1500.2
63.39	1590.0	1500.2
63.4	1613.0	1500.1
63.41	1603.0	1500.1
63.42	1594.0	1500.0
63.43	1572.0	1499.9
63.44	1543.0	1499.9
63.45	1570.0	1499.8
63.46	1573.0	1499.7
63.47	1547.0	1499.6
63.48	1556.0	1499.6
63.49	1611.0	1499.5
63.5	1603.0	1499.4
63.51	1555.0	1499.4
63.52	1536.0	1499.3
63.53	1513.0	1499.2
63.54	1554.0	1499.2
63.55	1619.0	1499.1
63.56	1604.0	1499.0
63.57	1503.0	1499.0
63.58	1542.0	1498.9
63.59	1584.0	1498.8
63.6	1578.0	1498.7
63.61	1585.0	1498.7
63.62	1584.0	1498.6
63.63	1558.0	1498.5
63.64	1583.0	1498.5
63.65	1575.0	1498.4
63.66	1546.0	1498.3
63.67	1554.0	1498.2
63.68	1545.0	1498.2
63.69	1503.0	1498.1
63.7	1572.0	1498.0
63.71	1571.0	1497.9
63.72	1580.0	1497.9
63.73	1530.0	1497.8
63.74	1526.0	1497.7
63.75	1553.0	1497.7
63.76	1561.0	1497.6
63.77	1582.0	1497.5
63.78	1576.0	1497.4
63.79	1524.0	1497.4
63.8	1555.0	1497.3
63.81	1562.0	1497.2
63.82	1565.0	1497.1
63.83	1541.0	1497.0
63.84	1522.0	1497.0
63.85	1544.0	1496.9
63.86	1541.0	1496.8
63.87	1532.0	1496.7
63.88	1513.0	1496.7
63.89	1551.0	1496.6
63.9	1540.0	1496.5
63.91	1572.0	1496.4
63.92	1627.0	1496.4
63.93	1575.0	1496.3
63.94	1574.0	1496.2
63.95	1575.0	1496.1
63.96	1527.0	1496.0
63.97	1557.0	1496.0
63.98	1564.0	1495.9
63.99	1548.0	1495.8
64.0	1581.0	1495.7
64.01	1590.0	1495.6
64.02	1571.0	1495.6
64.03	1571.0	1495.5
64.04	1582.0	1495.4
64.05	1624.0	1495.3
64.06	1620.0	1495.2
64.07	1575.0	1495.2
64.08	1547.0	1495.1
64.09	1575.0	1495.0
64.1	1620.0	1494.9
64.11	1552.0	1494.8
64.12	1562.0	1494.7
64.13	1583.0	1494.7
64.14	1622.0	1494.6
64.15	1636.0	1494.5
64.16	1620.0	1494.4
64.17	1599.0	1494.3
64.18	1564.0	1494.3
64.19	1555.0	1494.2
64.2	1625.0	1494.1
64.21	1596.0	1494.0
64.22	1598.0	1493.9
64.23	1661.0	1493.8
64.24	1709.0	1493.7
64.25	1660.0	1493.7
64.26	1635.0	1493.6
64.27	1695.0	1493.5
64.28	1721.0	1493.4
64.29	1668.0	1493.3
64.3	1647.0	1493.2
64.31	1671.0	1493.2
64.32	1714.0	1493.1
64.33	1737.0	1493.0
64.34	1729.0	1492.9
64.35	1772.0	1492.8
64.36	1806.0	1492.7
64.37	1850.0	1492.6
64.38	1886.0	1492.5
64.39	1920.0	1492.5
64.4	1884.0	1492.4
64.41	1965.0	1492.3
64.42	1945.0	1492.2
64.43	2000.0	1492.1
64.44	2031.0	1492.0
64.45	2114.0	1491.9
64.46	2104.0	1491.8
64.47	2140.0	1491.8
64.48	2234.0	1491.7
64.49	2302.0	1491.6
64.5	2380.0	1491.5
64.51	2378.0	1491.4
64.52	2391.0	1491.3
64.53	2445.0	1491.2
64.54	2487.0	1491.1
64.55	2597.0	1491.0
64.56	2553.0	1491.0
64.57	2587.0	1490.9
64.58	2598.0	1490.8
64.59	2623.0	1490.7
64.6	2559.0	1490.6
64.61	2652.0	1490.5
64.62	2646.0	1490.4
64.63	2621.0	1490.3
64.64	2600.0	1490.2
64.65	2559.0	1490.1
64.66	2629.0	1490.0
64.67	2573.0	1490.0
64.68	2638.0	1489.9
64.69	2596.0	1489.8
64.7	2528.0	1489.7
64.71	2596.0	1489.6
64.72	2593.0	1489.5
64.73	2630.0	1489.4
64.74	2606.0	1489.3
64.75	2584.0	1489.2
64.76	2622.0	1489.1
64.77	2659.0	1489.0
64.78	2704.0	1488.9
64.79	2645.0	1488.8
64.8	2630.0	1488.7
64.81	2537.0	1488.7
64.82	2568.0	1488.6
64.83	2502.0	1488.5
64.84	2457.0	1488.4
64.85	2402.0	1488.3
64.86	2354.0	1488.2
64.87	2315.0	1488.1
64.88	2231.0	1488.0
64.89	2151.0	1487.9
64.9	2158.0	1487.8
64.91	2099.0	1487.7
64.92	2058.0	1487.6
64.93	2055.0	1487.5
64.94	2026.0	1487.4
64.95	2098.0	1487.3
64.96	2049.0	1487.2
64.97	1990.0	1487.1
64.98	1960.0	1487.0
64.99	1939.0	1486.9
65.0	1938.0	1486.8
65.01	1976.0	1486.7
65.02	1919.0	1486.7
65.03	1875.0	1486.6
65.04	1887.0	1486.5
65.05	1836.0	1486.4
65.06	1783.0	1486.3
65.07	1837.0	1486.2
65.08	1818.0	1486.1
65.09	1809.0	1486.0
65.1	1778.0	1485.9
65.11	1748.0	1485.8
65.12	1791.0	1485.7
65.13	1745.0	1485.6
65.14	1662.0	1485.5
65.15	1665.0	1485.4
65.16	1745.0	1485.3
65.17	1701.0	1485.2
65.18	1696.0	1485.1
65.19	1658.0	1485.0
65.2	1690.0	1484.9
65.21	1630.0	1484.8
65.22	1607.0	1484.7
65.23	1673.0	1484.6
65.24	1607.0	1484.5
65.25	1624.0	1484.4
65.26	1633.0	1484.3
65.27	1651.0	1484.2
65.28	1666.0	1484.1
65.29	1651.0	1484.0
65.3	1677.0	1483.9
65.31	1677.0	1483.8
65.32	1710.0	1483.7
65.33	1762.0	1483.6
65.34	1679.0	1483.5
65.35	1689.0	1483.4
65.36	1757.0	1483.3
65.37	1807.0	1483.2
65.38	1836.0	1483.1
65.39	1756.0	1483.0
65.4	1832.0	1482.9
65.41	1893.0	1482.8
65.42	1935.0	1482.7
65.43	1978.0	1482.6
65.44	1976.0	1482.5
65.45	2032.0	1482.4
65.46	2124.0	1482.3
65.47	2140.0	1482.2
65.48	2245.0	1482.1
65.49	2315.0	1482.0
65.5	2363.0	1481.9
65.51	2355.0	1481.8
65.52	2466.0	1481.7
65.53	2527.0	1481.6
65.54	2592.0	1481.5
65.55	2719.0	1481.4
65.56	2766.0	1481.3
65.57	2742.0	1481.2
65.58	2821.0	1481.0
65.59	2887.0	1480.9
65.6	2842.0	1480.8
65.61	2811.0	1480.7
65.62	2709.0	1480.6
65.63	2736.0	1480.5
65.64	2684.0	1480.4
65.65	2542.0	1480.3
65.66	2483.0	1480.2
65.67	2477.0	1480.1
65.68	2463.0	1480.0
65.69	2448.0	1479.9
65.7	2440.0	1479.8
65.71	2407.0	1479.7
65.72	2384.0	1479.6
65.73	2348.0	1479.5
65.74	2337.0	1479.4
65.75	2393.0	1479.3
65.76	2367.0	1479.2
65.77	2285.0	1479.1
65.78	2268.0	1479.0
65.79	2210.0	1478.9
65.8	2216.0	1478.8
65.81	2212.0	1478.7
65.82	2144.0	1478.6
65.83	2058.0	1478.5
65.84	1995.0	1478.3
65.85	1915.0	1478.2
65.86	1871.0	1478.1
65.87	1912.0	1478.0
65.88	1869.0	1477.9
65.89	1840.0	1477.8
65.9	1746.0	1477.7
65.91	1742.0	1477.6
65.92	1678.0	1477.5
65.93	1715.0	1477.4
65.94	1711.0	1477.3
65.95	1699.0	1477.2
65.96	1666.0	1477.1
65.97	1628.0	1477.0
65.98	1616.0	1476.9
65.99	1634.0	1476.8
66.0	1635.0	1476.7
66.01	1616.0	1476.6
66.02	1585.0	1476.4
66.03	1558.0	1476.3
66.04	1607.0	1476.2
66.05	1531.0	1476.1
66.06	1567.0	1476.0
66.07	1582.0	1475.9
66.08	1577.0	1475.8
66.09	1628.0	1475.7
66.1	1581.0	1475.6
66.11	1542.0	1475.5
66.12	1573.0	1475.4
66.13	1603.0	1475.3
66.14	1540.0	1475.2
66.15	1482.0	1475.1
66.16	1560.0	1475.0
66.17	1572.0	1474.8
66.18	1540.0	1474.7
66.19	1540.0	1474.6
66.2	1487.0	1474.5
66.21	1533.0	1474.4
66.22	1562.0	1474.3
66.23	1594.0	1474.2
66.24	1565.0	1474.1
66.25	1586.0	1474.0
66.26	1573.0	1473.9
66.27	1582.0	1473.8
66.28	1597.0	1473.7
66.29	1580.0	1473.6
66.3	1571.0	1473.5
66.31	1584.0	1473.3
66.32	1568.0	1473.2
66.33	1525.0	1473.1
66.34	1579.0	1473.0
66.35	1631.0	1472.9
66.36	1577.0	1472.8
66.37	1559.0	1472.7
66.38	1605.0	1472.6
66.39	1656.0	1472.5
66.4	1630.0	1472.4
66.41	1615.0	1472.3
66.42	1660.0	1472.2
66.43	1653.0	1472.1
66.44	1630.0	1471.9
66.45	1682.0	1471.8
66.46	1730.0	1471.7
66.47	1782.0	1471.6
66.48	1777.0	1471.5
66.49	1770.0	1471.4
66.5	1753.0	1471.3
66.51	1774.0	1471.2
66.52	1841.0	1471.1
66.53	1937.0	1471.0
66.54	1950.0	1470.9
66.55	1977.0	1470.8
66.56	1947.0	1470.6
66.57	1986.0	1470.5
66.58	1975.0	1470.4
66.59	1979.0	1470.3
66.6	2001.0	1470.2
66.61	1993.0	1470.1
66.62	1928.0	1470.0
66.63	1885.0	1469.9
66.64	1848.0	1469.8
66.65	1836.0	1469.7
66.66	1818.0	1469.6
66.67	1802.0	1469.5
66.68	1800.0	1469.3
66.69	1776.0	1469.2
66.7	1694.0	1469.1
66.71	1768.0	1469.0
66.72	1804.0	1468.9
66.73	1820.0	1468.8
66.74	1814.0	1468.7
66.75	1794.0	1468.6
66.76	1856.0	1468.5
66.77	1834.0	1468.4
66.78	1769.0	1468.3
66.79	1722.0	1468.2
66.8	1727.0	1468.0
66.81	1706.0	1467.9
66.82	1695.0	1467.8
66.83	1694.0	1467.7
66.84	1709.0	1467.6
66.85	1636.0	1467.5
66.86	1619.0	1467.4
66.87	1587.0	1467.3
66.88	1554.0	1467.2
66.89	1558.0	1467.1
66.9	1573.0	1467.0
66.91	1593.0	1466.9
66.92	1546.0	1466.7
66.93	1544.0	1466.6
66.94	1653.0	1466.5
66.95	1606.0	1466.4
66.96	1541.0	1466.3
66.97	1581.0	1466.2
66.98	1579.0	1466.1
66.99	1572.0	1466.0
67.0	1526.0	1465.9
67.01	1485.0	1465.8
67.02	1533.0	1465.7
67.03	1531.0	1465.6
67.04	1511.0	1465.4
67.05	1558.0	1465.3
67.06	1580.0	1465.2
67.07	1525.0	1465.1
67.08	1504.0	1465.0
67.09	1490.0	1464.9
67.1	1456.0	1464.8
67.11	1526.0	1464.7
67.12	1506.0	1464.6
67.13	1514.0	1464.5
67.14	1471.0	1464.4
67.15	1453.0	1464.3
67.16	1508.0	1464.1
67.17	1491.0	1464.0
67.18	1515.0	1463.9
67.19	1522.0	1463.8
67.2	1499.0	1463.7
67.21	1519.0	1463.6
67.22	1520.0	1463.5
67.23	1449.0	1463.4
67.24	1446.0	1463.3
67.25	1487.0	1463.2
67.26	1477.0	1463.1
67.27	1493.0	1463.0
67.28	1483.0	1462.8
67.29	1529.0	1462.7
67.3	1518.0	1462.6
67.31	1532.0	1462.5
67.32	1550.0	1462.4
67.33	1512.0	1462.3
67.34	1508.0	1462.2
67.35	1540.0	1462.1
67.36	1526.0	1462.0
67.37	1517.0	1461.9
67.38	1504.0	1461.8
67.39	1490.0	1461.7
67.4	1521.0	1461.6
67.41	1530.0	1461.5
67.42	1516.0	1461.3
67.43	1549.0	1461.2
67.44	1505.0	1461.1
67.45	1488.0	1461.0
67.46	1515.0	1460.9
67.47	1512.0	1460.8
67.48	1474.0	1460.7
67.49	1498.0	1460.6
67.5	1490.0	1460.5
67.51	1533.0	1460.4
67.52	1525.0	1460.3
67.53	1518.0	1460.2
67.54	1545.0	1460.1
67.55	1531.0	1460.0
67.56	1522.0	1459.8
67.57	1556.0	1459.7
67.58	1515.0	1459.6
67.59	1476.0	1459.5
67.6	1556.0	1459.4
67.61	1495.0	1459.3
67.62	1521.0	1459.2
67.63	1536.0	1459.1
67.64	1538.0	1459.0
67.65	1499.0	1458.9
67.66	1505.0	1458.8
67.67	1544.0	1458.7
67.68	1539.0	1458.6
67.69	1505.0	1458.5
67.7	1509.0	1458.4
67.71	1512.0	1458.3
67.72	1535.0	1458.2
67.73	1524.0	1458.0
67.74	1468.0	1457.9
67.75	1495.0	1457.8
67.76	1498.0	1457.7
67.77	1452.0	1457.6
67.78	1519.0	1457.5
67.79	1559.0	1457.4
67.8	1525.0	1457.3
67.81	1510.0	1457.2
67.82	1569.0	1457.1
67.83	1577.0	1457.0
67.84	1524.0	1456.9
67.85	1474.0	1456.8
67.86	1484.0	1456.7
67.87	1516.0	1456.6
67.88	1489.0	1456.5
67.89	1474.0	1456.4
67.9	1460.0	1456.3
67.91	1436.0	1456.2
67.92	1517.0	1456.1
67.93	1494.0	1456.0
67.94	1505.0	1455.8
67.95	1486.0	1455.7
67.96	1482.0	1455.6
67.97	1542.0	1455.5
67.98	1485.0	1455.4
67.99	1514.0	1455.3
68.0	1495.0	1455.2
68.01	1543.0	1455.1
68.02	1544.0	1455.0
68.03	1501.0	1454.9
68.04	1471.0	1454.8
68.05	1474.0	1454.7
68.06	1494.0	1454.6
68.07	1550.0	1454.5
68.08	1575.0	1454.4
68.09	1527.0	1454.3
68.1	1534.0	1454.2
68.11	1563.0	1454.1
68.12	1510.0	1454.0
68.13	1508.0	1453.9
68.14	1518.0	1453.8
68.15	1567.0	1453.7
68.16	1543.0	1453.6
68.17	1535.0	1453.5
68.18	1554.0	1453.4
68.19	1481.0	1453.3
68.2	1503.0	1453.2
68.21	1507.0	1453.1
68.22	1495.0	1453.0
68.23	1493.0	1452.9
68.24	1499.0	1452.8
68.25	1476.0	1452.7
68.26	1473.0	1452.6
68.27	1505.0	1452.5
68.28	1542.0	1452.4
68.29	1570.0	1452.3
68.3	1532.0	1452.2
68.31	1519.0	1452.1
68.32	1512.0	1452.0
68.33	1491.0	1451.9
68.34	1505.0	1451.8
68.35	1545.0	1451.7
68.36	1598.0	1451.6
68.37	1535.0	1451.5
68.38	1494.0	1451.4
68.39	1539.0	1451.3
68.4	1551.0	1451.2
68.41	1551.0	1451.1
68.42	1565.0	1451.0
68.43	1530.0	1450.9
68.44	1575.0	1450.8
68.45	1607.0	1450.7
68.46	1563.0	1450.6
68.47	1528.0	1450.5
68.48	1541.0	1450.4
68.49	1545.0	1450.3
68.5	1559.0	1450.2
68.51	1583.0	1450.1
68.52	1575.0	1450.0
68.53	1567.0	1449.9
68.54	1556.0	1449.8
68.55	1562.0	1449.7
68.56	1573.0	1449.6
68.57	1589.0	1449.5
68.58	1557.0	1449.4
68.59	1632.0	1449.3
68.6	1601.0	1449.2
68.61	1640.0	1449.1
68.62	1618.0	1449.0
68.63	1628.0	1448.9
68.64	1606.0	1448.8
68.65	1668.0	1448.7
68.66	1690.0	1448.6
68.67	1696.0	1448.5
68.68	1700.0	1448.4
68.69	1697.0	1448.3
68.7	1729.0	1448.2
68.71	1780.0	1448.1
68.72	1830.0	1448.0
68.73	1863.0	1447.9
68.74	1859.0	1447.8
68.75	1899.0	1447.7
68.76	1938.0	1447.6
68.77	1957.0	1447.5
68.78	1958.0	1447.4
68.79	2028.0	1447.3
68.8	2051.0	1447.2
68.81	2117.0	1447.1
68.82	2072.0	1447.0
68.83	2112.0	1446.9
68.84	2124.0	1446.8
68.85	2148.0	1446.8
68.86	2108.0	1446.7
68.87	2106.0	1446.6
68.88	2109.0	1446.5
68.89	2090.0	1446.4
68.9	2080.0	1446.3
68.91	2111.0	1446.2
68.92	2108.0	1446.1
68.93	2068.0	1446.0
68.94	2054.0	1445.9
68.95	2044.0	1445.8
68.96	2094.0	1445.7
68.97	2125.0	1445.6
68.98	1997.0	1445.5
68.99	2001.0	1445.4
69.0	2009.0	1445.3
69.01	2003.0	1445.2
69.02	2032.0	1445.1
69.03	1961.0	1445.1
69.04	1932.0	1445.0
69.05	1926.0	1444.9
69.06	1918.0	1444.8
69.07	1913.0	1444.7
69.08	1908.0	1444.6
69.09	1885.0	1444.5
69.1	1893.0	1444.4
69.11	1886.0	1444.3
69.12	1841.0	1444.2
69.13	1785.0	1444.1
69.14	1742.0	1444.0
69.15	1720.0	1443.9
69.16	1753.0	1443.8
69.17	1762.0	1443.8
69.18	1672.0	1443.7
69.19	1663.0	1443.6
69.2	1708.0	1443.5
69.21	1700.0	1443.4
69.22	1692.0	1443.3
69.23	1595.0	1443.2
69.24	1603.0	1443.1
69.25	1612.0	1443.0
69.26	1645.0	1442.9
69.27	1672.0	1442.8
69.28	1610.0	1442.8
69.29	1617.0	1442.7
69.3	1627.0	1442.6
69.31	1609.0	1442.5
69.32	1565.0	1442.4
69.33	1584.0	1442.3
69.34	1594.0	1442.2
69.35	1578.0	1442.1
69.36	1579.0	1442.0
69.37	1591.0	1441.9
69.38	1565.0	1441.9
69.39	1568.0	1441.8
69.4	1582.0	1441.7
69.41	1562.0	1441.6
69.42	1543.0	1441.5
69.43	1560.0	1441.4
69.44	1586.0	1441.3
69.45	1545.0	1441.2
69.46	1555.0	1441.1
69.47	1584.0	1441.1
69.48	1567.0	1441.0
69.49	1526.0	1440.9
69.5	1640.0	1440.8
69.51	1616.0	1440.7
69.52	1601.0	1440.6
69.53	1644.0	1440.5
69.54	1578.0	1440.4
69.55	1623.0	1440.4
69.56	1624.0	1440.3
69.57	1630.0	1440.2
69.58	1590.0	1440.1
69.59	1586.0	1440.0
69.6	1623.0	1439.9
69.61	1650.0	1439.8
69.62	1601.0	1439.7
69.63	1604.0	1439.7
69.64	1614.0	1439.6
69.65	1597.0	1439.5
69.66	1605.0	1439.4
69.67	1643.0	1439.3
69.68	1657.0	1439.2
69.69	1628.0	1439.1
69.7	1639.0	1439.1
69.71	1709.0	1439.0
69.72	1643.0	1438.9
69.73	1562.0	1438.8
69.74	1599.0	1438.7
69.75	1584.0	1438.6
69.76	1574.0	1438.6
69.77	1606.0	1438.5
69.78	1614.0	1438.4
69.79	1625.0	1438.3
69.8	1612.0	1438.2
69.81	1606.0	1438.1
69.82	1573.0	1438.0
69.83	1576.0	1438.0
69.84	1593.0	1437.9
69.85	1590.0	1437.8
69.86	1634.0	1437.7
69.87	1599.0	1437.6
69.88	1572.0	1437.5
69.89	1581.0	1437.5
69.9	1637.0	1437.4
69.91	1574.0	1437.3
69.92	1581.0	1437.2
69.93	1585.0	1437.1
69.94	1568.0	1437.1
69.95	1625.0	1437.0
69.96	1621.0	1436.9
69.97	1603.0	1436.8
69.98	1607.0	1436.7
69.99	1591.0	1436.6
70.0	1609.0	1436.6
70.01	1630.0	1436.5
70.02	1617.0	1436.4
70.03	1612.0	1436.3
70.04	1592.0	1436.2
70.05	1630.0	1436.2
70.06	1624.0	1436.1
70.07	1622.0	1436.0
70.08	1600.0	1435.9
70.09	1618.0	1435.8
70.1	1600.0	1435.8
70.11	1636.0	1435.7
70.12	1702.0	1435.6
70.13	1574.0	1435.5
70.14	1590.0	1435.4
70.15	1554.0	1435.4
70.16	1536.0	1435.3
70.17	1521.0	1435.2
70.18	1568.0	1435.1
70.19	1607.0	1435.1
70.2	1584.0	1435.0
70.21	1531.0	1434.9
70.22	1544.0	1434.8
70.23	1564.0	1434.7
70.24	1563.0	1434.7
70.25	1558.0	1434.6
70.26	1591.0	1434.5
70.27	1581.0	1434.4
70.28	1576.0	1434.4
70.29	1555.0	1434.3
70.3	1565.0	1434.2
70.31	1516.0	1434.1
70.32	1506.0	1434.0
70.33	1499.0	1434.0
70.34	1559.0	1433.9
70.35	1549.0	1433.8
70.36	1537.0	1433.7
70.37	1504.0	1433.7
70.38	1556.0	1433.6
70.39	1543.0	1433.5
70.4	1532.0	1433.4
70.41	1564.0	1433.4
70.42	1540.0	1433.3
70.43	1526.0	1433.2
70.44	1543.0	1433.1
70.45	1516.0	1433.1
70.46	1533.0	1433.0
70.47	1524.0	1432.9
70.48	1531.0	1432.9
70.49	1514.0	1432.8
70.5	1511.0	1432.7
70.51	1521.0	1432.6
70.52	1511.0	1432.6
70.53	1503.0	1432.5
70.54	1510.0	1432.4
70.55	1509.0	1432.3
70.56	1529.0	1432.3
70.57	1518.0	1432.2
70.58	1499.0	1432.1
70.59	1483.0	1432.0
70.6	1489.0	1432.0
70.61	1523.0	1431.9
70.62	1511.0	1431.8
70.63	1543.0	1431.8
70.64	1519.0	1431.7
70.65	1490.0	1431.6
70.66	1494.0	1431.5
70.67	1498.0	1431.5
70.68	1479.0	1431.4
70.69	1520.0	1431.3
70.7	1524.0	1431.3
70.71	1519.0	1431.2
70.72	1601.0	1431.1
70.73	1587.0	1431.1
70.74	1515.0	1431.0
70.75	1506.0	1430.9
70.76	1541.0	1430.8
70.77	1558.0	1430.8
70.78	1545.0	1430.7
70.79	1541.0	1430.6
70.8	1466.0	1430.6
70.81	1465.0	1430.5
70.82	1495.0	1430.4
70.83	1448.0	1430.4
70.84	1474.0	1430.3
70.85	1479.0	1430.2
70.86	1487.0	1430.2
70.87	1528.0	1430.1
70.88	1531.0	1430.0
70.89	1542.0	1430.0
70.9	1530.0	1429.9
70.91	1532.0	1429.8
70.92	1526.0	1429.8
70.93	1520.0	1429.7
70.94	1500.0	1429.6
70.95	1514.0	1429.6
70.96	1534.0	1429.5
70.97	1560.0	1429.4
70.98	1526.0	1429.4
70.99	1534.0	1429.3
71.0	1517.0	1429.2
71.01	1487.0	1429.2
71.02	1537.0	1429.1
71.03	1568.0	1429.0
71.04	1541.0	1429.0
71.05	1532.0	1428.9
71.06	1520.0	1428.9
71.07	1507.0	1428.8
71.08	1475.0	1428.7
71.09	1454.0	1428.7
71.1	1461.0	1428.6
71.11	1481.0	1428.5
71.12	1528.0	1428.5
71.13	1503.0	1428.4
71.14	1473.0	1428.3
71.15	1503.0	1428.3
71.16	1491.0	1428.2
71.17	1493.0	1428.2
71.18	1517.0	1428.1
71.19	1516.0	1428.0
71.2	1524.0	1428.0
71.21	1498.0	1427.9
71.22	1500.0	1427.8
71.23	1473.0	1427.8
71.24	1493.0	1427.7
71.25	1532.0	1427.7
71.26	1535.0	1427.6
71.27	1538.0	1427.5
71.28	1504.0	1427.5
71.29	1510.0	1427.4
71.3	1483.0	1427.4
71.31	1469.0	1427.3
71.32	1469.0	1427.2
71.33	1458.0	1427.2
71.34	1468.0	1427.1
71.35	1489.0	1427.1
71.36	1531.0	1427.0
71.37	1524.0	1427.0
71.38	1494.0	1426.9
71.39	1497.0	1426.8
71.4	1519.0	1426.8
71.41	1527.0	1426.7
71.42	1485.0	1426.7
71.43	1460.0	1426.6
71.44	1487.0	1426.5
71.45	1476.0	1426.5
71.46	1533.0	1426.4
71.47	1527.0	1426.4
71.48	1490.0	1426.3
71.49	1491.0	1426.3
71.5	1507.0	1426.2
71.51	1497.0	1426.2
71.52	1490.0	1426.1
71.53	1484.0	1426.0
71.54	1519.0	1426.0
71.55	1483.0	1425.9
71.56	1492.0	1425.9
71.57	1549.0	1425.8
71.58	1538.0	1425.8
71.59	1520.0	1425.7
71.6	1507.0	1425.7
71.61	1532.0	1425.6
71.62	1442.0	1425.6
71.63	1483.0	1425.5
71.64	1543.0	1425.4
71.65	1516.0	1425.4
71.66	1557.0	1425.3
71.67	1505.0	1425.3
71.68	1503.0	1425.2
71.69	1507.0	1425.2
71.7	1485.0	1425.1
71.71	1497.0	1425.1
71.72	1509.0	1425.0
71.73	1548.0	1425.0
71.74	1533.0	1424.9
71.75	1541.0	1424.9
71.76	1523.0	1424.8
71.77	1505.0	1424.8
71.78	1453.0	1424.7
71.79	1488.0	1424.7
71.8	1478.0	1424.6
71.81	1543.0	1424.6
71.82	1542.0	1424.5
71.83	1514.0	1424.5
71.84	1470.0	1424.4
71.85	1510.0	1424.4
71.86	1480.0	1424.3
71.87	1498.0	1424.3
71.88	1535.0	1424.2
71.89	1532.0	1424.2
71.9	1552.0	1424.1
71.91	1498.0	1424.1
71.92	1529.0	1424.0
71.93	1561.0	1424.0
71.94	1528.0	1423.9
71.95	1516.0	1423.9
71.96	1532.0	1423.8
71.97	1524.0	1423.8
71.98	1513.0	1423.7
71.99	1571.0	1423.7
72.0	1541.0	1423.7
72.01	1493.0	1423.6
72.02	1513.0	1423.6
72.03	1526.0	1423.5
72.04	1553.0	1423.5
72.05	1547.0	1423.4
72.06	1573.0	1423.4
72.07	1548.0	1423.3
72.08	1555.0	1423.3
72.09	1527.0	1423.3
72.1	1549.0	1423.2
72.11	1612.0	1423.2
72.12	1619.0	1423.1
72.13	1600.0	1423.1
72.14	1600.0	1423.0
72.15	1605.0	1423.0
72.16	1620.0	1422.9
72.17	1603.0	1422.9
72.18	1624.0	1422.9
72.19	1650.0	1422.8
72.2	1691.0	1422.8
72.21	1677.0	1422.7
72.22	1644.0	1422.7
72.23	1675.0	1422.7
72.24	1654.0	1422.6
72.25	1668.0	1422.6
72.26	1721.0	1422.5
72.27	1676.0	1422.5
72.28	1667.0	1422.5
72.29	1688.0	1422.4
72.3	1704.0	1422.4
72.31	1681.0	1422.3
72.32	1664.0	1422.3
72.33	1686.0	1422.3
72.34	1665.0	1422.2
72.35	1661.0	1422.2
72.36	1641.0	1422.1
72.37	1664.0	1422.1
72.38	1609.0	1422.1
72.39	1619.0	1422.0
72.4	1671.0	1422.0
72.41	1672.0	1421.9
72.42	1647.0	1421.9
72.43	1648.0	1421.9
72.44	1648.0	1421.8
72.45	1697.0	1421.8
72.46	1660.0	1421.8
72.47	1641.0	1421.7
72.48	1654.0	1421.7
72.49	1706.0	1421.7
72.5	1695.0	1421.6
72.51	1654.0	1421.6
72.52	1678.0	1421.6
72.53	1635.0	1421.5
72.54	1586.0	1421.5
72.55	1612.0	1421.4
72.56	1649.0	1421.4
72.57	1640.0	1421.4
72.58	1598.0	1421.3
72.59	1601.0	1421.3
72.6	1533.0	1421.3
72.61	1610.0	1421.2
72.62	1567.0	1421.2
72.63	1603.0	1421.2
72.64	1603.0	1421.1
72.65	1556.0	1421.1
72.66	1573.0	1421.1
72.67	1550.0	1421.1
72.68	1595.0	1421.0
72.69	1558.0	1421.0
72.7	1568.0	1421.0
72.71	1560.0	1420.9
72.72	1508.0	1420.9
72.73	1588.0	1420.9
72.74	1627.0	1420.8
72.75	1601.0	1420.8
72.76	1565.0	1420.8
72.77	1559.0	1420.7
72.78	1570.0	1420.7
72.79	1543.0	1420.7
72.8	1513.0	1420.7
72.81	1552.0	1420.6
72.82	1515.0	1420.6
72.83	1532.0	1420.6
72.84	1516.0	1420.6
72.85	1497.0	1420.5
72.86	1507.0	1420.5
72.87	1526.0	1420.5
72.88	1537.0	1420.4
72.89	1483.0	1420.4
72.9	1517.0	1420.4
72.91	1544.0	1420.4
72.92	1540.0	1420.3
72.93	1538.0	1420.3
72.94	1521.0	1420.3
72.95	1517.0	1420.3
72.96	1518.0	1420.2
72.97	1486.0	1420.2
72.98	1480.0	1420.2
72.99	1474.0	1420.2
73.0	1533.0	1420.1
73.01	1515.0	1420.1
73.02	1493.0	1420.1
73.03	1494.0	1420.1
73.04	1478.0	1420.0
73.05	1467.0	1420.0
73.06	1511.0	1420.0
73.07	1526.0	1420.0
73.08	1506.0	1420.0
73.09	1469.0	1419.9
73.1	1499.0	1419.9
73.11	1504.0	1419.9
73.12	1555.0	1419.9
73.13	1532.0	1419.8
73.14	1550.0	1419.8
73.15	1504.0	1419.8
73.16	1478.0	1419.8
73.17	1485.0	1419.8
73.18	1499.0	1419.7
73.19	1477.0	1419.7
73.2	1432.0	1419.7
73.21	1444.0	1419.7
73.22	1515.0	1419.7
73.23	1516.0	1419.7
73.24	1488.0	1419.6
73.25	1522.0	1419.6
73.26	1509.0	1419.6
73.27	1491.0	1419.6
73.28	1470.0	1419.6
73.29	1462.0	1419.5
73.3	1555.0	1419.5
73.31	1508.0	1419.5
73.32	1497.0	1419.5
73.33	1472.0	1419.5
73.34	1486.0	1419.5
73.35	1487.0	1419.5
73.36	1513.0	1419.4
73.37	1495.0	1419.4
73.38	1469.0	1419.4
73.39	1501.0	1419.4
73.4	1466.0	1419.4
73.41	1473.0	1419.4
73.42	1496.0	1419.4
73.43	1496.0	1419.3
73.44	1506.0	1419.3
73.45	1505.0	1419.3
73.46	1473.0	1419.3
73.47	1439.0	1419.3
73.48	1522.0	1419.3
73.49	1485.0	1419.3
73.5	1477.0	1419.2
73.51	1455.0	1419.2
73.52	1419.0	1419.2
73.53	1467.0	1419.2
73.54	1529.0	1419.2
73.55	1506.0	1419.2
73.56	1457.0	1419.2
73.57	1415.0	1419.2
73.58	1472.0	1419.2
73.59	1494.0	1419.2
73.6	1456.0	1419.1
73.61	1494.0	1419.1
73.62	1502.0	1419.1
73.63	1508.0	1419.1
73.64	1482.0	1419.1
73.65	1475.0	1419.1
73.66	1486.0	1419.1
73.67	1502.0	1419.1
73.68	1514.0	1419.1
73.69	1479.0	1419.1
73.7	1445.0	1419.1
73.71	1478.0	1419.1
73.72	1523.0	1419.1
73.73	1487.0	1419.1
73.74	1480.0	1419.0
73.75	1455.0	1419.0
73.76	1435.0	1419.0
73.77	1475.0	1419.0
73.78	1521.0	1419.0
73.79	1531.0	1419.0
73.8	1527.0	1419.0
73.81	1527.0	1419.0
73.82	1492.0	1419.0
73.83	1512.0	1419.0
73.84	1540.0	1419.0
73.85	1555.0	1419.0
73.86	1516.0	1419.0
73.87	1484.0	1419.0
73.88	1483.0	1419.0
73.89	1507.0	1419.0
73.9	1511.0	1419.0
73.91	1459.0	1419.0
73.92	1462.0	1419.0
73.93	1500.0	1419.0
73.94	1463.0	1419.0
73.95	1497.0	1419.0
73.96	1486.0	1419.0
73.97	1483.0	1419.0
73.98	1500.0	1419.0
73.99	1497.0	1419.0
74.0	1511.0	1419.0
74.01	1518.0	1419.0
74.02	1529.0	1419.0
74.03	1535.0	1419.0
74.04	1499.0	1419.0
74.05	1503.0	1419.0
74.06	1514.0	1419.0
74.07	1463.0	1419.0
74.08	1499.0	1419.0
74.09	1507.0	1419.0
74.1	1471.0	1419.0
74.11	1485.0	1419.0
74.12	1492.0	1419.0
74.13	1488.0	1419.0
74.14	1504.0	1419.0
74.15	1491.0	1419.0
74.16	1555.0	1419.1
74.17	1544.0	1419.1
74.18	1529.0	1419.1
74.19	1529.0	1419.1
74.2	1504.0	1419.1
74.21	1483.0	1419.1
74.22	1528.0	1419.1
74.23	1508.0	1419.1
74.24	1461.0	1419.1
74.25	1491.0	1419.1
74.26	1512.0	1419.1
74.27	1487.0	1419.1
74.28	1457.0	1419.1
74.29	1471.0	1419.2
74.3	1478.0	1419.2
74.31	1472.0	1419.2
74.32	1462.0	1419.2
74.33	1494.0	1419.2
74.34	1470.0	1419.2
74.35	1518.0	1419.2
74.36	1534.0	1419.2
74.37	1489.0	1419.2
74.38	1502.0	1419.2
74.39	1497.0	1419.3
74.4	1492.0	1419.3
74.41	1463.0	1419.3
74.42	1494.0	1419.3
74.43	1516.0	1419.3
74.44	1473.0	1419.3
74.45	1487.0	1419.3
74.46	1473.0	1419.3
74.47	1483.0	1419.4
74.48	1435.0	1419.4
74.49	1449.0	1419.4
74.5	1482.0	1419.4
74.51	1460.0	1419.4
74.52	1505.0	1419.4
74.53	1504.0	1419.5
74.54	1472.0	1419.5
74.55	1497.0	1419.5
74.56	1455.0	1419.5
74.57	1504.0	1419.5
74.58	1486.0	1419.5
74.59	1468.0	1419.6
74.6	1449.0	1419.6
74.61	1514.0	1419.6
74.62	1478.0	1419.6
74.63	1469.0	1419.6
74.64	1471.0	1419.7
74.65	1458.0	1419.7
74.66	1452.0	1419.7
74.67	1445.0	1419.7
74.68	1485.0	1419.7
74.69	1462.0	1419.8
74.7	1464.0	1419.8
74.71	1478.0	1419.8
74.72	1501.0	1419.8
74.73	1520.0	1419.8
74.74	1493.0	1419.9
74.75	1480.0	1419.9
74.76	1493.0	1419.9
74.77	1460.0	1419.9
74.78	1408.0	1419.9
74.79	1412.0	1420.0
74.8	1427.0	1420.0
74.81	1476.0	1420.0
74.82	1508.0	1420.0
74.83	1474.0	1420.1
74.84	1498.0	1420.1
74.85	1482.0	1420.1
74.86	1480.0	1420.1
74.87	1514.0	1420.2
74.88	1484.0	1420.2
74.89	1479.0	1420.2
74.9	1469.0	1420.3
74.91	1501.0	1420.3
74.92	1543.0	1420.3
74.93	1556.0	1420.3
74.94	1530.0	1420.4
74.95	1471.0	1420.4
74.96	1484.0	1420.4
74.97	1453.0	1420.4
74.98	1449.0	1420.5
74.99	1480.0	1420.5
75.0	1490.0	1420.5
75.01	1485.0	1420.6
75.02	1488.0	1420.6
75.03	1517.0	1420.6
75.04	1547.0	1420.7
75.05	1512.0	1420.7
75.06	1526.0	1420.7
75.07	1478.0	1420.8
75.08	1481.0	1420.8
75.09	1508.0	1420.8
75.1	1485.0	1420.8
75.11	1500.0	1420.9
75.12	1498.0	1420.9
75.13	1502.0	1420.9
75.14	1524.0	1421.0
75.15	1535.0	1421.0
75.16	1491.0	1421.1
75.17	1470.0	1421.1
75.18	1466.0	1421.1
75.19	1421.0	1421.2
75.2	1446.0	1421.2
75.21	1471.0	1421.2
75.22	1504.0	1421.3
75.23	1495.0	1421.3
75.24	1496.0	1421.3
75.25	1505.0	1421.4
75.26	1499.0	1421.4
75.27	1477.0	1421.5
75.28	1445.0	1421.5
75.29	1472.0	1421.5
75.3	1510.0	1421.6
75.31	1520.0	1421.6
75.32	1466.0	1421.6
75.33	1467.0	1421.7
75.34	1483.0	1421.7
75.35	1485.0	1421.8
75.36	1453.0	1421.8
75.37	1517.0	1421.8
75.38	1526.0	1421.9
75.39	1483.0	1421.9
75.4	1468.0	1422.0
75.41	1522.0	1422.0
75.42	1517.0	1422.1
75.43	1500.0	1422.1
75.44	1489.0	1422.1
75.45	1495.0	1422.2
75.46	1498.0	1422.2
75.47	1476.0	1422.3
75.48	1507.0	1422.3
75.49	1507.0	1422.4
75.5	1473.0	1422.4
75.51	1468.0	1422.5
75.52	1462.0	1422.5
75.53	1489.0	1422.5
75.54	1457.0	1422.6
75.55	1413.0	1422.6
75.56	1403.0	1422.7
75.57	1429.0	1422.7
75.58	1453.0	1422.8
75.59	1489.0	1422.8
75.6	1500.0	1422.9
75.61	1531.0	1422.9
75.62	1506.0	1423.0
75.63	1528.0	1423.0
75.64	1490.0	1423.1
75.65	1491.0	1423.1
75.66	1461.0	1423.2
75.67	1441.0	1423.2
75.68	1456.0	1423.3
75.69	1456.0	1423.3
75.7	1473.0	1423.4
75.71	1468.0	1423.4
75.72	1472.0	1423.5
75.73	1464.0	1423.5
75.74	1487.0	1423.6
75.75	1478.0	1423.6
75.76	1446.0	1423.7
75.77	1476.0	1423.7
75.78	1496.0	1423.8
75.79	1461.0	1423.9
75.8	1462.0	1423.9
75.81	1448.0	1424.0
75.82	1459.0	1424.0
75.83	1513.0	1424.1
75.84	1471.0	1424.1
75.85	1474.0	1424.2
75.86	1492.0	1424.2
75.87	1507.0	1424.3
75.88	1486.0	1424.4
75.89	1426.0	1424.4
75.9	1494.0	1424.5
75.91	1481.0	1424.5
75.92	1496.0	1424.6
75.93	1480.0	1424.6
75.94	1431.0	1424.7
75.95	1439.0	1424.8
75.96	1465.0	1424.8
75.97	1473.0	1424.9
75.98	1473.0	1424.9
75.99	1467.0	1425.0
76.0	1463.0	1425.1
76.01	1477.0	1425.1
76.02	1441.0	1425.2
76.03	1493.0	1425.2
76.04	1527.0	1425.3
76.05	1490.0	1425.4
76.06	1516.0	1425.4
76.07	1528.0	1425.5
76.08	1512.0	1425.5
76.09	1517.0	1425.6
76.1	1484.0	1425.7
76.11	1487.0	1425.7
76.12	1463.0	1425.8
76.13	1455.0	1425.9
76.14	1462.0	1425.9
76.15	1489.0	1426.0
76.16	1484.0	1426.0
76.17	1443.0	1426.1
76.18	1437.0	1426.2
76.19	1448.0	1426.2
76.2	1483.0	1426.3
76.21	1466.0	1426.4
76.22	1424.0	1426.4
76.23	1516.0	1426.5
76.24	1552.0	1426.6
76.25	1526.0	1426.6
76.26	1484.0	1426.7
76.27	1472.0	1426.8
76.28	1447.0	1426.8
76.29	1435.0	1426.9
76.3	1460.0	1427.0
76.31	1445.0	1427.0
76.32	1412.0	1427.1
76.33	1414.0	1427.2
76.34	1406.0	1427.2
76.35	1400.0	1427.3
76.36	1428.0	1427.4
76.37	1485.0	1427.4
76.38	1480.0	1427.5
76.39	1443.0	1427.6
76.4	1435.0	1427.6
76.41	1478.0	1427.7
76.42	1454.0	1427.8
76.43	1477.0	1427.9
76.44	1468.0	1427.9
76.45	1484.0	1428.0
76.46	1499.0	1428.1
76.47	1473.0	1428.1
76.48	1491.0	1428.2
76.49	1464.0	1428.3
76.5	1445.0	1428.4
76.51	1477.0	1428.4
76.52	1439.0	1428.5
76.53	1500.0	1428.6
76.54	1514.0	1428.6
76.55	1481.0	1428.7
76.56	1489.0	1428.8
76.57	1462.0	1428.9
76.58	1457.0	1428.9
76.59	1476.0	1429.0
76.6	1462.0	1429.1
76.61	1497.0	1429.1
76.62	1461.0	1429.2
76.63	1476.0	1429.3
76.64	1467.0	1429.4
76.65	1478.0	1429.4
76.66	1478.0	1429.5
76.67	1483.0	1429.6
76.68	1466.0	1429.7
76.69	1475.0	1429.7
76.7	1510.0	1429.8
76.71	1428.0	1429.9
76.72	1424.0	1430.0
76.73	1473.0	1430.0
76.74	1491.0	1430.1
76.75	1532.0	1430.2
76.76	1503.0	1430.3
76.77	1454.0	1430.4
76.78	1480.0	1430.4
76.79	1500.0	1430.5
76.8	1455.0	1430.6
76.81	1445.0	1430.7
76.82	1493.0	1430.7
76.83	1500.0	1430.8
76.84	1516.0	1430.9
76.85	1496.0	1431.0
76.86	1489.0	1431.0
76.87	1473.0	1431.1
76.88	1508.0	1431.2
76.89	1471.0	1431.3
76.9	1448.0	1431.4
76.91	1497.0	1431.4
76.92	1508.0	1431.5
76.93	1477.0	1431.6
76.94	1477.0	1431.7
76.95	1471.0	1431.8
76.96	1484.0	1431.8
76.97	1496.0	1431.9
76.98	1457.0	1432.0
76.99	1450.0	1432.1
77.0	1506.0	1432.2
77.01	1528.0	1432.2
77.02	1502.0	1432.3
77.03	1460.0	1432.4
77.04	1471.0	1432.5
77.05	1496.0	1432.6
77.06	1485.0	1432.6
77.07	1433.0	1432.7
77.08	1513.0	1432.8
77.09	1494.0	1432.9
77.1	1515.0	1433.0
77.11	1507.0	1433.0
77.12	1503.0	1433.1
77.13	1537.0	1433.2
77.14	1544.0	1433.3
77.15	1524.0	1433.4
77.16	1514.0	1433.5
77.17	1542.0	1433.5
77.18	1473.0	1433.6
77.19	1491.0	1433.7
77.2	1565.0	1433.8
77.21	1543.0	1433.9
77.22	1513.0	1433.9
77.23	1540.0	1434.0
77.24	1540.0	1434.1
77.25	1539.0	1434.2
77.26	1566.0	1434.3
77.27	1525.0	1434.4
77.28	1576.0	1434.4
77.29	1611.0	1434.5
77.3	1624.0	1434.6
77.31	1672.0	1434.7
77.32	1640.0	1434.8
77.33	1648.0	1434.9
77.34	1680.0	1435.0
77.35	1717.0	1435.0
77.36	1726.0	1435.1
77.37	1743.0	1435.2
77.38	1710.0	1435.3
77.39	1690.0	1435.4
77.4	1703.0	1435.5
77.41	1681.0	1435.5
77.42	1697.0	1435.6
77.43	1711.0	1435.7
77.44	1686.0	1435.8
77.45	1617.0	1435.9
77.46	1628.0	1436.0
77.47	1646.0	1436.1
77.48	1633.0	1436.1
77.49	1582.0	1436.2
77.5	1633.0	1436.3
77.51	1613.0	1436.4
77.52	1635.0	1436.5
77.53	1641.0	1436.6
77.54	1610.0	1436.7
77.55	1584.0	1436.7
77.56	1618.0	1436.8
77.57	1649.0	1436.9
77.58	1646.0	1437.0
77.59	1682.0	1437.1
77.6	1691.0	1437.2
77.61	1686.0	1437.3
77.62	1660.0	1437.3
77.63	1636.0	1437.4
77.64	1656.0	1437.5
77.65	1686.0	1437.6
77.66	1691.0	1437.7
77.67	1662.0	1437.8
77.68	1677.0	1437.9
77.69	1700.0	1437.9
77.7	1694.0	1438.0
77.71	1686.0	1438.1
77.72	1717.0	1438.2
77.73	1716.0	1438.3
77.74	1733.0	1438.4
77.75	1732.0	1438.5
77.76	1632.0	1438.6
77.77	1633.0	1438.6
77.78	1636.0	1438.7
77.79	1653.0	1438.8
77.8	1693.0	1438.9
77.81	1647.0	1439.0
77.82	1628.0	1439.1
77.83	1645.0	1439.2
77.84	1638.0	1439.3
77.85	1625.0	1439.3
77.86	1594.0	1439.4
77.87	1579.0	1439.5
77.88	1565.0	1439.6
77.89	1606.0	1439.7
77.9	1610.0	1439.8
77.91	1571.0	1439.9
77.92	1640.0	1440.0
77.93	1652.0	1440.0
77.94	1571.0	1440.1
77.95	1576.0	1440.2
77.96	1563.0	1440.3
77.97	1608.0	1440.4
77.98	1605.0	1440.5
77.99	1574.0	1440.6
78.0	1607.0	1440.7
78.01	1598.0	1440.7
78.02	1579.0	1440.8
78.03	1578.0	1440.9
78.04	1584.0	1441.0
78.05	1601.0	1441.1
78.06	1595.0	1441.2
78.07	1566.0	1441.3
78.08	1588.0	1441.4
78.09	1622.0	1441.5
78.1	1580.0	1441.5
78.11	1592.0	1441.6
78.12	1617.0	1441.7
78.13	1669.0	1441.8
78.14	1624.0	1441.9
78.15	1584.0	1442.0
78.16	1632.0	1442.1
78.17	1588.0	1442.2
78.18	1644.0	1442.2
78.19	1599.0	1442.3
78.2	1585.0	1442.4
78.21	1593.0	1442.5
78.22	1667.0	1442.6
78.23	1636.0	1442.7
78.24	1596.0	1442.8
78.25	1632.0	1442.9
78.26	1639.0	1442.9
78.27	1624.0	1443.0
78.28	1622.0	1443.1
78.29	1660.0	1443.2
78.3	1622.0	1443.3
78.31	1645.0	1443.4
78.32	1763.0	1443.5
78.33	1691.0	1443.6
78.34	1660.0	1443.7
78.35	1705.0	1443.7
78.36	1736.0	1443.8
78.37	1767.0	1443.9
78.38	1790.0	1444.0
78.39	1742.0	1444.1
78.4	1780.0	1444.2
78.41	1843.0	1444.3
78.42	1897.0	1444.4
78.43	1864.0	1444.4
78.44	1879.0	1444.5
78.45	1960.0	1444.6
78.46	2017.0	1444.7
78.47	2007.0	1444.8
78.48	1990.0	1444.9
78.49	2008.0	1445.0
78.5	2061.0	1445.1
78.51	2040.0	1445.1
78.52	2021.0	1445.2
78.53	1951.0	1445.3
78.54	1910.0	1445.4
78.55	1903.0	1445.5
78.56	1929.0	1445.6
78.57	1940.0	1445.7
78.58	1924.0	1445.8
78.59	1916.0	1445.8
78.6	1883.0	1445.9
78.61	1858.0	1446.0
78.62	1904.0	1446.1
78.63	1902.0	1446.2
78.64	1826.0	1446.3
78.65	1862.0	1446.4
78.66	1907.0	1446.4
78.67	1898.0	1446.5
78.68	1912.0	1446.6
78.69	1914.0	1446.7
78.7	1841.0	1446.8
78.71	1851.0	1446.9
78.72	1857.0	1447.0
78.73	1812.0	1447.0
78.74	1813.0	1447.1
78.75	1842.0	1447.2
78.76	1798.0	1447.3
78.77	1793.0	1447.4
78.78	1777.0	1447.5
78.79	1760.0	1447.6
78.8	1775.0	1447.6
78.81	1779.0	1447.7
78.82	1753.0	1447.8
78.83	1719.0	1447.9
78.84	1758.0	1448.0
78.85	1724.0	1448.1
78.86	1735.0	1448.2
78.87	1701.0	1448.2
78.88	1625.0	1448.3
78.89	1573.0	1448.4
78.9	1587.0	1448.5
78.91	1599.0	1448.6
78.92	1589.0	1448.7
78.93	1603.0	1448.8
78.94	1574.0	1448.8
78.95	1568.0	1448.9
78.96	1522.0	1449.0
78.97	1571.0	1449.1
78.98	1551.0	1449.2
78.99	1517.0	1449.3
79.0	1539.0	1449.3
79.01	1517.0	1449.4
79.02	1527.0	1449.5
79.03	1535.0	1449.6
79.04	1606.0	1449.7
79.05	1576.0	1449.8
79.06	1546.0	1449.8
79.07	1491.0	1449.9
79.08	1509.0	1450.0
79.09	1493.0	1450.1
79.1	1507.0	1450.2
79.11	1548.0	1450.3
79.12	1542.0	1450.3
79.13	1501.0	1450.4
79.14	1507.0	1450.5
79.15	1502.0	1450.6
79.16	1452.0	1450.7
79.17	1482.0	1450.7
79.18	1492.0	1450.8
79.19	1500.0	1450.9
79.2	1466.0	1451.0
79.21	1511.0	1451.1
79.22	1511.0	1451.1
79.23	1476.0	1451.2
79.24	1511.0	1451.3
79.25	1506.0	1451.4
79.26	1482.0	1451.5
79.27	1473.0	1451.6
79.28	1475.0	1451.6
79.29	1470.0	1451.7
79.3	1475.0	1451.8
79.31	1548.0	1451.9
79.32	1540.0	1452.0
79.33	1512.0	1452.0
79.34	1506.0	1452.1
79.35	1432.0	1452.2
79.36	1424.0	1452.3
79.37	1518.0	1452.3
79.38	1550.0	1452.4
79.39	1519.0	1452.5
79.4	1480.0	1452.6
79.41	1492.0	1452.7
79.42	1514.0	1452.7
79.43	1464.0	1452.8
79.44	1472.0	1452.9
79.45	1470.0	1453.0
79.46	1474.0	1453.0
79.47	1520.0	1453.1
79.48	1491.0	1453.2
79.49	1447.0	1453.3
79.5	1437.0	1453.4
79.51	1480.0	1453.4
79.52	1480.0	1453.5
79.53	1484.0	1453.6
79.54	1485.0	1453.7
79.55	1464.0	1453.7
79.56	1457.0	1453.8
79.57	1488.0	1453.9
79.58	1499.0	1454.0
79.59	1507.0	1454.0
79.6	1474.0	1454.1
79.61	1489.0	1454.2
79.62	1499.0	1454.3
79.63	1498.0	1454.3
79.64	1536.0	1454.4
79.65	1514.0	1454.5
79.66	1459.0	1454.6
79.67	1512.0	1454.6
79.68	1484.0	1454.7
79.69	1506.0	1454.8
79.7	1550.0	1454.9
79.71	1534.0	1454.9
79.72	1501.0	1455.0
79.73	1512.0	1455.1
79.74	1529.0	1455.1
79.75	1485.0	1455.2
79.76	1505.0	1455.3
79.77	1523.0	1455.4
79.78	1487.0	1455.4
79.79	1465.0	1455.5
79.8	1498.0	1455.6
79.81	1501.0	1455.6
79.82	1489.0	1455.7
79.83	1527.0	1455.8
79.84	1543.0	1455.9
79.85	1584.0	1455.9
79.86	1545.0	1456.0
79.87	1517.0	1456.1
79.88	1524.0	1456.1
79.89	1549.0	1456.2
79.9	1508.0	1456.3
79.91	1561.0	1456.3
79.92	1581.0	1456.4
79.93	1577.0	1456.5
79.94	1564.0	1456.6
79.95	1603.0	1456.6
79.96	1610.0	1456.7
79.97	1594.0	1456.8
79.98	1610.0	1456.8
79.99	1657.0	1456.9
80.0	1664.0	1457.0
80.01	1613.0	1457.0
80.02	1637.0	1457.1
80.03	1627.0	1457.2
80.04	1725.0	1457.2
80.05	1733.0	1457.3
80.06	1840.0	1457.4
80.07	1828.0	1457.4
80.08	1838.0	1457.5
80.09	1867.0	1457.6
80.1	1898.0	1457.6
80.11	1910.0	1457.7
80.12	1879.0	1457.7
80.13	1905.0	1457.8
80.14	1860.0	1457.9
80.15	1853.0	1457.9
80.16	1810.0	1458.0
80.17	1802.0	1458.1
80.18	1792.0	1458.1
80.19	1736.0	1458.2
80.2	1735.0	1458.2
80.21	1731.0	1458.3
80.22	1740.0	1458.4
80.23	1715.0	1458.4
80.24	1635.0	1458.5
80.25	1662.0	1458.6
80.26	1675.0	1458.6
80.27	1666.0	1458.7
80.28	1698.0	1458.7
80.29	1703.0	1458.8
80.3	1674.0	1458.9
80.31	1655.0	1458.9
80.32	1728.0	1459.0
80.33	1763.0	1459.0
80.34	1743.0	1459.1
80.35	1708.0	1459.1
80.36	1728.0	1459.2
80.37	1735.0	1459.3
80.38	1697.0	1459.3
80.39	1706.0	1459.4
80.4	1704.0	1459.4
80.41	1675.0	1459.5
80.42	1632.0	1459.5
80.43	1575.0	1459.6
80.44	1591.0	1459.7
80.45	1618.0	1459.7
80.46	1589.0	1459.8
80.47	1580.0	1459.8
80.48	1553.0	1459.9
80.49	1554.0	1459.9
80.5	1540.0	1460.0
80.51	1546.0	1460.0
80.52	1542.0	1460.1
80.53	1515.0	1460.1
80.54	1524.0	1460.2
80.55	1554.0	1460.3
80.56	1542.0	1460.3
80.57	1527.0	1460.4
80.58	1522.0	1460.4
80.59	1519.0	1460.5
80.6	1529.0	1460.5
80.61	1526.0	1460.6
80.62	1548.0	1460.6
80.63	1554.0	1460.7
80.64	1489.0	1460.7
80.65	1541.0	1460.8
80.66	1595.0	1460.8
80.67	1537.0	1460.9
80.68	1528.0	1460.9
80.69	1492.0	1461.0
80.7	1481.0	1461.0
80.71	1520.0	1461.1
80.72	1510.0	1461.1
80.73	1488.0	1461.1
80.74	1507.0	1461.2
80.75	1508.0	1461.2
80.76	1492.0	1461.3
80.77	1468.0	1461.3
80.78	1478.0	1461.4
80.79	1531.0	1461.4
80.8	1529.0	1461.5
80.81	1566.0	1461.5
80.82	1560.0	1461.6
80.83	1513.0	1461.6
80.84	1502.0	1461.6
80.85	1540.0	1461.7
80.86	1560.0	1461.7
80.87	1559.0	1461.8
80.88	1547.0	1461.8
80.89	1542.0	1461.9
80.9	1536.0	1461.9
80.91	1549.0	1461.9
80.92	1548.0	1462.0
80.93	1564.0	1462.0
80.94	1562.0	1462.1
80.95	1540.0	1462.1
80.96	1572.0	1462.1
80.97	1697.0	1462.2
80.98	1708.0	1462.2
80.99	1637.0	1462.3
81.0	1594.0	1462.3
81.01	1614.0	1462.3
81.02	1617.0	1462.4
81.03	1616.0	1462.4
81.04	1642.0	1462.4
81.05	1608.0	1462.5
81.06	1591.0	1462.5
81.07	1627.0	1462.5
81.08	1653.0	1462.6
81.09	1631.0	1462.6
81.1	1620.0	1462.7
81.11	1631.0	1462.7
81.12	1615.0	1462.7
81.13	1617.0	1462.8
81.14	1618.0	1462.8
81.15	1627.0	1462.8
81.16	1585.0	1462.9
81.17	1585.0	1462.9
81.18	1598.0	1462.9
81.19	1627.0	1462.9
81.2	1597.0	1463.0
81.21	1574.0	1463.0
81.22	1600.0	1463.0
81.23	1593.0	1463.1
81.24	1582.0	1463.1
81.25	1609.0	1463.1
81.26	1646.0	1463.2
81.27	1626.0	1463.2
81.28	1612.0	1463.2
81.29	1590.0	1463.2
81.3	1615.0	1463.3
81.31	1637.0	1463.3
81.32	1605.0	1463.3
81.33	1629.0	1463.3
81.34	1586.0	1463.4
81.35	1568.0	1463.4
81.36	1583.0	1463.4
81.37	1589.0	1463.4
81.38	1609.0	1463.5
81.39	1581.0	1463.5
81.4	1535.0	1463.5
81.41	1552.0	1463.5
81.42	1562.0	1463.6
81.43	1527.0	1463.6
81.44	1575.0	1463.6
81.45	1594.0	1463.6
81.46	1601.0	1463.6
81.47	1590.0	1463.7
81.48	1585.0	1463.7
81.49	1585.0	1463.7
81.5	1593.0	1463.7
81.51	1557.0	1463.7
81.52	1530.0	1463.8
81.53	1528.0	1463.8
81.54	1572.0	1463.8
81.55	1536.0	1463.8
81.56	1549.0	1463.8
81.57	1517.0	1463.8
81.58	1516.0	1463.9
81.59	1547.0	1463.9
81.6	1577.0	1463.9
81.61	1575.0	1463.9
81.62	1593.0	1463.9
81.63	1538.0	1463.9
81.64	1513.0	1463.9
81.65	1460.0	1464.0
81.66	1441.0	1464.0
81.67	1467.0	1464.0
81.68	1443.0	1464.0
81.69	1488.0	1464.0
81.7	1519.0	1464.0
81.71	1522.0	1464.0
81.72	1555.0	1464.0
81.73	1528.0	1464.0
81.74	1509.0	1464.0
81.75	1497.0	1464.1
81.76	1543.0	1464.1
81.77	1546.0	1464.1
81.78	1537.0	1464.1
81.79	1560.0	1464.1
81.8	1561.0	1464.1
81.81	1555.0	1464.1
81.82	1517.0	1464.1
81.83	1483.0	1464.1
81.84	1558.0	1464.1
81.85	1560.0	1464.1
81.86	1508.0	1464.1
81.87	1470.0	1464.1
81.88	1437.0	1464.1
81.89	1495.0	1464.1
81.9	1529.0	1464.1
81.91	1497.0	1464.1
81.92	1530.0	1464.1
81.93	1542.0	1464.1
81.94	1500.0	1464.1
81.95	1519.0	1464.1
81.96	1485.0	1464.1
81.97	1529.0	1464.1
81.98	1554.0	1464.1
81.99	1500.0	1464.1
82.0	1497.0	1464.1
82.01	1478.0	1464.1
82.02	1498.0	1464.1
82.03	1505.0	1464.1
82.04	1469.0	1464.1
82.05	1491.0	1464.1
82.06	1461.0	1464.1
82.07	1497.0	1464.1
82.08	1520.0	1464.1
82.09	1477.0	1464.1
82.1	1491.0	1464.1
82.11	1524.0	1464.0
82.12	1520.0	1464.0
82.13	1516.0	1464.0
82.14	1515.0	1464.0
82.15	1468.0	1464.0
82.16	1495.0	1464.0
82.17	1526.0	1464.0
82.18	1590.0	1464.0
82.19	1630.0	1464.0
82.2	1619.0	1464.0
82.21	1557.0	1463.9
82.22	1490.0	1463.9
82.23	1512.0	1463.9
82.24	1602.0	1463.9
82.25	1608.0	1463.9
82.26	1565.0	1463.9
82.27	1534.0	1463.9
82.28	1565.0	1463.8
82.29	1580.0	1463.8
82.3	1575.0	1463.8
82.31	1550.0	1463.8
82.32	1520.0	1463.8
82.33	1518.0	1463.8
82.34	1576.0	1463.7
82.35	1533.0	1463.7
82.36	1551.0	1463.7
82.37	1531.0	1463.7
82.38	1535.0	1463.7
82.39	1512.0	1463.7
82.4	1541.0	1463.6
82.41	1545.0	1463.6
82.42	1541.0	1463.6
82.43	1520.0	1463.6
82.44	1534.0	1463.6
82.45	1587.0	1463.5
82.46	1597.0	1463.5
82.47	1560.0	1463.5
82.48	1546.0	1463.5
82.49	1570.0	1463.4
82.5	1570.0	1463.4
82.51	1551.0	1463.4
82.52	1556.0	1463.4
82.53	1548.0	1463.3
82.54	1554.0	1463.3
82.55	1548.0	1463.3
82.56	1564.0	1463.3
82.57	1613.0	1463.2
82.58	1630.0	1463.2
82.59	1583.0	1463.2
82.6	1631.0	1463.2
82.61	1590.0	1463.1
82.62	1609.0	1463.1
82.63	1625.0	1463.1
82.64	1676.0	1463.0
82.65	1598.0	1463.0
82.66	1638.0	1463.0
82.67	1684.0	1463.0
82.68	1673.0	1462.9
82.69	1677.0	1462.9
82.7	1711.0	1462.9
82.71	1725.0	1462.8
82.72	1689.0	1462.8
82.73	1688.0	1462.8
82.74	1692.0	1462.7
82.75	1707.0	1462.7
82.76	1747.0	1462.7
82.77	1773.0	1462.6
82.78	1797.0	1462.6
82.79	1827.0	1462.6
82.8	1815.0	1462.5
82.81	1846.0	1462.5
82.82	1845.0	1462.5
82.83	1892.0	1462.4
82.84	1874.0	1462.4
82.85	1924.0	1462.4
82.86	1924.0	1462.3
82.87	1922.0	1462.3
82.88	1934.0	1462.2
82.89	1896.0	1462.2
82.9	1903.0	1462.2
82.91	1867.0	1462.1
82.92	1827.0	1462.1
82.93	1877.0	1462.1
82.94	1864.0	1462.0
82.95	1796.0	1462.0
82.96	1810.0	1461.9
82.97	1844.0	1461.9
82.98	1867.0	1461.9
82.99	1832.0	1461.8
83.0	1827.0	1461.8
83.01	1824.0	1461.7
83.02	1838.0	1461.7
83.03	1809.0	1461.6
83.04	1717.0	1461.6
83.05	1727.0	1461.6
83.06	1766.0	1461.5
83.07	1789.0	1461.5
83.08	1721.0	1461.4
83.09	1730.0	1461.4
83.1	1745.0	1461.3
83.11	1756.0	1461.3
83.12	1735.0	1461.3
83.13	1709.0	1461.2
83.14	1733.0	1461.2
83.15	1741.0	1461.1
83.16	1739.0	1461.1
83.17	1709.0	1461.0
83.18	1724.0	1461.0
83.19	1716.0	1460.9
83.2	1665.0	1460.9
83.21	1642.0	1460.8
83.22	1615.0	1460.8
83.23	1651.0	1460.7
83.24	1621.0	1460.7
83.25	1591.0	1460.6
83.26	1618.0	1460.6
83.27	1608.0	1460.5
83.28	1646.0	1460.5
83.29	1604.0	1460.4
83.3	1571.0	1460.4
83.31	1531.0	1460.3
83.32	1509.0	1460.3
83.33	1538.0	1460.2
83.34	1566.0	1460.2
83.35	1590.0	1460.1
83.36	1552.0	1460.1
83.37	1531.0	1460.0
83.38	1544.0	1460.0
83.39	1524.0	1459.9
83.4	1504.0	1459.9
83.41	1530.0	1459.8
83.42	1513.0	1459.8
83.43	1546.0	1459.7
83.44	1525.0	1459.7
83.45	1556.0	1459.6
83.46	1554.0	1459.6
83.47	1472.0	1459.5
83.48	1477.0	1459.5
83.49	1478.0	1459.4
83.5	1470.0	1459.3
83.51	1516.0	1459.3
83.52	1496.0	1459.2
83.53	1488.0	1459.2
83.54	1493.0	1459.1
83.55	1502.0	1459.1
83.56	1479.0	1459.0
83.57	1463.0	1458.9
83.58	1480.0	1458.9
83.59	1487.0	1458.8
83.6	1511.0	1458.8
83.61	1501.0	1458.7
83.62	1468.0	1458.7
83.63	1483.0	1458.6
83.64	1465.0	1458.5
83.65	1460.0	1458.5
83.66	1457.0	1458.4
83.67	1483.0	1458.4
83.68	1478.0	1458.3
83.69	1514.0	1458.2
83.7	1500.0	1458.2
83.71	1501.0	1458.1
83.72	1454.0	1458.1
83.73	1437.0	1458.0
83.74	1500.0	1457.9
83.75	1516.0	1457.9
83.76	1492.0	1457.8
83.77	1477.0	1457.8
83.78	1457.0	1457.7
83.79	1482.0	1457.6
83.8	1479.0	1457.6
83.81	1453.0	1457.5
83.82	1468.0	1457.4
83.83	1507.0	1457.4
83.84	1503.0	1457.3
83.85	1476.0	1457.3
83.86	1490.0	1457.2
83.87	1471.0	1457.1
83.88	1474.0	1457.1
83.89	1519.0	1457.0
83.9	1487.0	1456.9
83.91	1471.0	1456.9
83.92	1503.0	1456.8
83.93	1490.0	1456.7
83.94	1459.0	1456.7
83.95	1489.0	1456.6
83.96	1485.0	1456.5
83.97	1488.0	1456.5
83.98	1491.0	1456.4
83.99	1478.0	1456.4
84.0	1460.0	1456.3
84.01	1465.0	1456.2
84.02	1456.0	1456.2
84.03	1472.0	1456.1
84.04	1492.0	1456.0
84.05	1476.0	1456.0
84.06	1475.0	1455.9
84.07	1520.0	1455.8
84.08	1520.0	1455.7
84.09	1522.0	1455.7
84.1	1534.0	1455.6
84.11	1542.0	1455.5
84.12	1534.0	1455.5
84.13	1546.0	1455.4
84.14	1527.0	1455.3
84.15	1519.0	1455.3
84.16	1525.0	1455.2
84.17	1531.0	1455.1
84.18	1554.0	1455.1
84.19	1566.0	1455.0
84.2	1563.0	1454.9
84.21	1551.0	1454.9
84.22	1540.0	1454.8
84.23	1532.0	1454.7
84.24	1557.0	1454.6
84.25	1555.0	1454.6
84.26	1542.0	1454.5
84.27	1574.0	1454.4
84.28	1567.0	1454.4
84.29	1542.0	1454.3
84.3	1536.0	1454.2
84.31	1560.0	1454.1
84.32	1568.0	1454.1
84.33	1595.0	1454.0
84.34	1570.0	1453.9
84.35	1588.0	1453.9
84.36	1612.0	1453.8
84.37	1664.0	1453.7
84.38	1648.0	1453.6
84.39	1619.0	1453.6
84.4	1640.0	1453.5
84.41	1626.0	1453.4
84.42	1638.0	1453.4
84.43	1676.0	1453.3
84.44	1667.0	1453.2
84.45	1662.0	1453.1
84.46	1658.0	1453.1
84.47	1708.0	1453.0
84.48	1721.0	1452.9
84.49	1776.0	1452.8
84.5	1746.0	1452.8
84.51	1723.0	1452.7
84.52	1764.0	1452.6
84.53	1732.0	1452.5
84.54	1780.0	1452.5
84.55	1818.0	1452.4
84.56	1804.0	1452.3
84.57	1805.0	1452.2
84.58	1784.0	1452.2
84.59	1788.0	1452.1
84.6	1762.0	1452.0
84.61	1738.0	1451.9
84.62	1718.0	1451.9
84.63	1686.0	1451.8
84.64	1676.0	1451.7
84.65	1685.0	1451.6
84.66	1739.0	1451.6
84.67	1758.0	1451.5
84.68	1721.0	1451.4
84.69	1697.0	1451.3
84.7	1626.0	1451.3
84.71	1632.0	1451.2
84.72	1692.0	1451.1
84.73	1747.0	1451.0
84.74	1715.0	1451.0
84.75	1664.0	1450.9
84.76	1665.0	1450.8
84.77	1684.0	1450.7
84.78	1658.0	1450.7
84.79	1628.0	1450.6
84.8	1612.0	1450.5
84.81	1651.0	1450.4
84.82	1653.0	1450.3
84.83	1648.0	1450.3
84.84	1637.0	1450.2
84.85	1654.0	1450.1
84.86	1693.0	1450.0
84.87	1653.0	1450.0
84.88	1642.0	1449.9
84.89	1632.0	1449.8
84.9	1615.0	1449.7
84.91	1569.0	1449.7
84.92	1555.0	1449.6
84.93	1609.0	1449.5
84.94	1580.0	1449.4
84.95	1538.0	1449.3
84.96	1509.0	1449.3
84.97	1552.0	1449.2
84.98	1565.0	1449.1
84.99	1521.0	1449.0
85.0	1522.0	1449.0
85.01	1523.0	1448.9
85.02	1484.0	1448.8
85.03	1467.0	1448.7
85.04	1459.0	1448.6
85.05	1510.0	1448.6
85.06	1533.0	1448.5
85.07	1487.0	1448.4
85.08	1482.0	1448.3
85.09	1468.0	1448.2
85.1	1472.0	1448.2
85.11	1509.0	1448.1
85.12	1540.0	1448.0
85.13	1536.0	1447.9
85.14	1518.0	1447.9
85.15	1487.0	1447.8
85.16	1498.0	1447.7
85.17	1470.0	1447.6
85.18	1451.0	1447.5
85.19	1464.0	1447.5
85.2	1473.0	1447.4
85.21	1480.0	1447.3
85.22	1484.0	1447.2
85.23	1471.0	1447.1
85.24	1471.0	1447.1
85.25	1478.0	1447.0
85.26	1484.0	1446.9
85.27	1483.0	1446.8
85.28	1468.0	1446.7
85.29	1463.0	1446.7
85.3	1472.0	1446.6
85.31	1469.0	1446.5
85.32	1514.0	1446.4
85.33	1506.0	1446.3
85.34	1524.0	1446.3
85.35	1500.0	1446.2
85.36	1465.0	1446.1
85.37	1476.0	1446.0
85.38	1464.0	1445.9
85.39	1458.0	1445.9
85.4	1464.0	1445.8
85.41	1491.0	1445.7
85.42	1523.0	1445.6
85.43	1518.0	1445.6
85.44	1480.0	1445.5
85.45	1438.0	1445.4
85.46	1449.0	1445.3
85.47	1456.0	1445.2
85.48	1489.0	1445.2
85.49	1507.0	1445.1
85.5	1508.0	1445.0
85.51	1533.0	1444.9
85.52	1533.0	1444.8
85.53	1500.0	1444.8
85.54	1503.0	1444.7
85.55	1496.0	1444.6
85.56	1501.0	1444.5
85.57	1468.0	1444.4
85.58	1517.0	1444.4
85.59	1513.0	1444.3
85.6	1544.0	1444.2
85.61	1519.0	1444.1
85.62	1498.0	1444.0
85.63	1524.0	1444.0
85.64	1531.0	1443.9
85.65	1558.0	1443.8
85.66	1557.0	1443.7
85.67	1543.0	1443.6
85.68	1537.0	1443.6
85.69	1529.0	1443.5
85.7	1521.0	1443.4
85.71	1546.0	1443.3
85.72	1548.0	1443.3
85.73	1507.0	1443.2
85.74	1516.0	1443.1
85.75	1548.0	1443.0
85.76	1572.0	1442.9
85.77	1557.0	1442.9
85.78	1545.0	1442.8
85.79	1527.0	1442.7
85.8	1544.0	1442.6
85.81	1548.0	1442.5
85.82	1517.0	1442.5
85.83	1517.0	1442.4
85.84	1570.0	1442.3
85.85	1575.0	1442.2
85.86	1538.0	1442.2
85.87	1561.0	1442.1
85.88	1596.0	1442.0
85.89	1551.0	1441.9
85.9	1532.0	1441.8
85.91	1543.0	1441.8
85.92	1542.0	1441.7
85.93	1548.0	1441.6
85.94	1574.0	1441.5
85.95	1576.0	1441.5
85.96	1547.0	1441.4
85.97	1548.0	1441.3
85.98	1521.0	1441.2
85.99	1538.0	1441.1
86.0	1496.0	1441.1
86.01	1535.0	1441.0
86.02	1532.0	1440.9
86.03	1520.0	1440.8
86.04	1563.0	1440.8
86.05	1555.0	1440.7
86.06	1530.0	1440.6
86.07	1533.0	1440.5
86.08	1572.0	1440.4
86.09	1526.0	1440.4
86.1	1491.0	1440.3
86.11	1487.0	1440.2
86.12	1489.0	1440.1
86.13	1538.0	1440.1
86.14	1543.0	1440.0
86.15	1532.0	1439.9
86.16	1524.0	1439.8
86.17	1552.0	1439.8
86.18	1543.0	1439.7
86.19	1541.0	1439.6
86.2	1554.0	1439.5
86.21	1516.0	1439.5
86.22	1482.0	1439.4
86.23	1458.0	1439.3
86.24	1500.0	1439.2
86.25	1487.0	1439.2
86.26	1519.0	1439.1
86.27	1543.0	1439.0
86.28	1564.0	1438.9
86.29	1527.0	1438.9
86.3	1495.0	1438.8
86.31	1482.0	1438.7
86.32	1501.0	1438.6
86.33	1506.0	1438.6
86.34	1498.0	1438.5
86.35	1469.0	1438.4
86.36	1449.0	1438.3
86.37	1459.0	1438.3
86.38	1496.0	1438.2
86.39	1498.0	1438.1
86.4	1506.0	1438.0
86.41	1513.0	1438.0
86.42	1525.0	1437.9
86.43	1513.0	1437.8
86.44	1490.0	1437.8
86.45	1498.0	1437.7
86.46	1494.0	1437.6
86.47	1478.0	1437.5
86.48	1519.0	1437.5
86.49	1513.0	1437.4
86.5	1557.0	1437.3
86.51	1535.0	1437.2
86.52	1492.0	1437.2
86.53	1481.0	1437.1
86.54	1473.0	1437.0
86.55	1492.0	1437.0
86.56	1515.0	1436.9
86.57	1484.0	1436.8
86.58	1476.0	1436.7
86.59	1479.0	1436.7
86.6	1417.0	1436.6
86.61	1430.0	1436.5
86.62	1502.0	1436.5
86.63	1524.0	1436.4
86.64	1534.0	1436.3
86.65	1510.0	1436.3
86.66	1511.0	1436.2
86.67	1493.0	1436.1
86.68	1461.0	1436.0
86.69	1464.0	1436.0
86.7	1464.0	1435.9
86.71	1485.0	1435.8
86.72	1499.0	1435.8
86.73	1531.0	1435.7
86.74	1534.0	1435.6
86.75	1530.0	1435.6
86.76	1490.0	1435.5
86.77	1481.0	1435.4
86.78	1498.0	1435.4
86.79	1511.0	1435.3
86.8	1514.0	1435.2
86.81	1546.0	1435.2
86.82	1543.0	1435.1
86.83	1508.0	1435.0
86.84	1480.0	1435.0
86.85	1484.0	1434.9
86.86	1471.0	1434.8
86.87	1503.0	1434.8
86.88	1502.0	1434.7
86.89	1492.0	1434.6
86.9	1505.0	1434.6
86.91	1441.0	1434.5
86.92	1458.0	1434.4
86.93	1524.0	1434.4
86.94	1547.0	1434.3
86.95	1513.0	1434.2
86.96	1472.0	1434.2
86.97	1455.0	1434.1
86.98	1468.0	1434.1
86.99	1484.0	1434.0
87.0	1501.0	1433.9
87.01	1493.0	1433.9
87.02	1476.0	1433.8
87.03	1500.0	1433.7
87.04	1550.0	1433.7
87.05	1484.0	1433.6
87.06	1467.0	1433.5
87.07	1474.0	1433.5
87.08	1457.0	1433.4
87.09	1489.0	1433.4
87.1	1512.0	1433.3
87.11	1474.0	1433.2
87.12	1471.0	1433.2
87.13	1493.0	1433.1
87.14	1499.0	1433.1
87.15	1524.0	1433.0
87.16	1535.0	1432.9
87.17	1514.0	1432.9
87.18	1510.0	1432.8
87.19	1515.0	1432.8
87.2	1498.0	1432.7
87.21	1488.0	1432.6
87.22	1522.0	1432.6
87.23	1540.0	1432.5
87.24	1570.0	1432.5
87.25	1552.0	1432.4
87.26	1540.0	1432.3
87.27	1546.0	1432.3
87.28	1557.0	1432.2
87.29	1535.0	1432.2
87.3	1567.0	1432.1
87.31	1553.0	1432.1
87.32	1545.0	1432.0
87.33	1578.0	1432.0
87.34	1584.0	1431.9
87.35	1556.0	1431.8
87.36	1544.0	1431.8
87.37	1555.0	1431.7
87.38	1559.0	1431.7
87.39	1532.0	1431.6
87.4	1534.0	1431.6
87.41	1555.0	1431.5
87.42	1532.0	1431.5
87.43	1502.0	1431.4
87.44	1501.0	1431.4
87.45	1509.0	1431.3
87.46	1573.0	1431.2
87.47	1557.0	1431.2
87.48	1557.0	1431.1
87.49	1524.0	1431.1
87.5	1533.0	1431.0
87.51	1527.0	1431.0
87.52	1525.0	1430.9
87.53	1534.0	1430.9
87.54	1526.0	1430.8
87.55	1524.0	1430.8
87.56	1541.0	1430.7
87.57	1520.0	1430.7
87.58	1517.0	1430.6
87.59	1543.0	1430.6
87.6	1521.0	1430.5
87.61	1472.0	1430.5
87.62	1487.0	1430.4
87.63	1506.0	1430.4
87.64	1514.0	1430.3
87.65	1534.0	1430.3
87.66	1520.0	1430.2
87.67	1503.0	1430.2
87.68	1528.0	1430.2
87.69	1517.0	1430.1
87.7	1482.0	1430.1
87.71	1483.0	1430.0
87.72	1495.0	1430.0
87.73	1520.0	1429.9
87.74	1514.0	1429.9
87.75	1497.0	1429.8
87.76	1489.0	1429.8
87.77	1486.0	1429.7
87.78	1480.0	1429.7
87.79	1458.0	1429.7
87.8	1476.0	1429.6
87.81	1485.0	1429.6
87.82	1454.0	1429.5
87.83	1481.0	1429.5
87.84	1531.0	1429.4
87.85	1515.0	1429.4
87.86	1467.0	1429.4
87.87	1445.0	1429.3
87.88	1471.0	1429.3
87.89	1489.0	1429.2
87.9	1484.0	1429.2
87.91	1520.0	1429.2
87.92	1505.0	1429.1
87.93	1457.0	1429.1
87.94	1452.0	1429.0
87.95	1444.0	1429.0
87.96	1476.0	1429.0
87.97	1501.0	1428.9
87.98	1498.0	1428.9
87.99	1517.0	1428.9
88.0	1545.0	1428.8
88.01	1538.0	1428.8
88.02	1505.0	1428.8
88.03	1472.0	1428.7
88.04	1455.0	1428.7
88.05	1488.0	1428.6
88.06	1484.0	1428.6
88.07	1476.0	1428.6
88.08	1455.0	1428.5
88.09	1485.0	1428.5
88.1	1498.0	1428.5
88.11	1485.0	1428.4
88.12	1494.0	1428.4
88.13	1466.0	1428.4
88.14	1481.0	1428.3
88.15	1524.0	1428.3
88.16	1478.0	1428.3
88.17	1454.0	1428.3
88.18	1488.0	1428.2
88.19	1526.0	1428.2
88.2	1523.0	1428.2
88.21	1513.0	1428.1
88.22	1466.0	1428.1
88.23	1443.0	1428.1
88.24	1458.0	1428.0
88.25	1458.0	1428.0
88.26	1450.0	1428.0
88.27	1417.0	1428.0
88.28	1452.0	1427.9
88.29	1435.0	1427.9
88.3	1411.0	1427.9
88.31	1428.0	1427.9
88.32	1455.0	1427.8
88.33	1461.0	1427.8
88.34	1459.0	1427.8
88.35	1450.0	1427.8
88.36	1472.0	1427.7
88.37	1498.0	1427.7
88.38	1501.0	1427.7
88.39	1503.0	1427.7
88.4	1478.0	1427.6
88.41	1451.0	1427.6
88.42	1443.0	1427.6
88.43	1463.0	1427.6
88.44	1466.0	1427.6
88.45	1492.0	1427.5
88.46	1518.0	1427.5
88.47	1484.0	1427.5
88.48	1464.0	1427.5
88.49	1483.0	1427.5
88.5	1485.0	1427.4
88.51	1460.0	1427.4
88.52	1474.0	1427.4
88.53	1481.0	1427.4
88.54	1466.0	1427.4
88.55	1486.0	1427.4
88.56	1476.0	1427.3
88.57	1463.0	1427.3
88.58	1457.0	1427.3
88.59	1480.0	1427.3
88.6	1495.0	1427.3
88.61	1493.0	1427.3
88.62	1497.0	1427.2
88.63	1509.0	1427.2
88.64	1504.0	1427.2
88.65	1493.0	1427.2
88.66	1489.0	1427.2
88.67	1509.0	1427.2
88.68	1506.0	1427.2
88.69	1489.0	1427.2
88.7	1474.0	1427.1
88.71	1493.0	1427.1
88.72	1548.0	1427.1
88.73	1564.0	1427.1
88.74	1518.0	1427.1
88.75	1458.0	1427.1
88.76	1466.0	1427.1
88.77	1491.0	1427.1
88.78	1477.0	1427.1
88.79	1491.0	1427.1
88.8	1485.0	1427.0
88.81	1434.0	1427.0
88.82	1423.0	1427.0
88.83	1455.0	1427.0
88.84	1494.0	1427.0
88.85	1512.0	1427.0
88.86	1522.0	1427.0
88.87	1521.0	1427.0
88.88	1524.0	1427.0
88.89	1520.0	1427.0
88.9	1528.0	1427.0
88.91	1517.0	1427.0
88.92	1512.0	1427.0
88.93	1516.0	1427.0
88.94	1523.0	1427.0
88.95	1536.0	1427.0
88.96	1522.0	1427.0
88.97	1510.0	1426.9
88.98	1524.0	1426.9
88.99	1535.0	1426.9
89.0	1504.0	1426.9
89.01	1522.0	1426.9
89.02	1554.0	1426.9
89.03	1535.0	1426.9
89.04	1487.0	1426.9
89.05	1528.0	1426.9
89.06	1555.0	1426.9
89.07	1512.0	1426.9
89.08	1510.0	1426.9
89.09	1510.0	1426.9
89.1	1508.0	1426.9
89.11	1536.0	1426.9
89.12	1552.0	1426.9
89.13	1541.0	1426.9
89.14	1536.0	1426.9
89.15	1527.0	1426.9
89.16	1476.0	1426.9
89.17	1494.0	1427.0
89.18	1563.0	1427.0
89.19	1607.0	1427.0
89.2	1586.0	1427.0
89.21	1536.0	1427.0
89.22	1528.0	1427.0
89.23	1528.0	1427.0
89.24	1537.0	1427.0
89.25	1542.0	1427.0
89.26	1512.0	1427.0
89.27	1488.0	1427.0
89.28	1519.0	1427.0
89.29	1526.0	1427.0
89.3	1514.0	1427.0
89.31	1520.0	1427.0
89.32	1538.0	1427.0
89.33	1540.0	1427.0
89.34	1518.0	1427.0
89.35	1506.0	1427.1
89.36	1531.0	1427.1
89.37	1540.0	1427.1
89.38	1543.0	1427.1
89.39	1518.0	1427.1
89.4	1523.0	1427.1
89.41	1520.0	1427.1
89.42	1496.0	1427.1
89.43	1516.0	1427.1
89.44	1555.0	1427.1
89.45	1526.0	1427.2
89.46	1472.0	1427.2
89.47	1452.0	1427.2
89.48	1463.0	1427.2
89.49	1474.0	1427.2
89.5	1463.0	1427.2
89.51	1467.0	1427.2
89.52	1480.0	1427.2
89.53	1476.0	1427.3
89.54	1492.0	1427.3
89.55	1496.0	1427.3
89.56	1476.0	1427.3
89.57	1491.0	1427.3
89.58	1513.0	1427.3
89.59	1478.0	1427.3
89.6	1442.0	1427.4
89.61	1460.0	1427.4
89.62	1484.0	1427.4
89.63	1473.0	1427.4
89.64	1454.0	1427.4
89.65	1447.0	1427.4
89.66	1446.0	1427.4
89.67	1466.0	1427.5
89.68	1472.0	1427.5
89.69	1482.0	1427.5
89.7	1484.0	1427.5
89.71	1469.0	1427.5
89.72	1472.0	1427.6
89.73	1494.0	1427.6
89.74	1467.0	1427.6
89.75	1449.0	1427.6
89.76	1457.0	1427.6
89.77	1433.0	1427.6
89.78	1441.0	1427.7
89.79	1492.0	1427.7
89.8	1511.0	1427.7
89.81	1516.0	1427.7
89.82	1501.0	1427.7
89.83	1471.0	1427.8
89.84	1457.0	1427.8
89.85	1490.0	1427.8
89.86	1492.0	1427.8
89.87	1469.0	1427.9
89.88	1479.0	1427.9
89.89	1504.0	1427.9
89.9	1482.0	1427.9
89.91	1450.0	1427.9
89.92	1445.0	1428.0
89.93	1460.0	1428.0
89.94	1482.0	1428.0
89.95	1476.0	1428.0
89.96	1454.0	1428.1
89.97	1451.0	1428.1
89.98	1440.0	1428.1
89.99	1447.0	1428.1
90.0	1456.0	1428.2
90.01	1461.0	1428.2
90.02	1481.0	1428.2
90.03	1460.0	1428.2
90.04	1428.0	1428.3
90.05	1431.0	1428.3
90.06	1462.0	1428.3
90.07	1467.0	1428.3
90.08	1456.0	1428.4
90.09	1443.0	1428.4
90.1	1442.0	1428.4
90.11	1443.0	1428.4
90.12	1448.0	1428.5
90.13	1469.0	1428.5
90.14	1464.0	1428.5
90.15	1466.0	1428.6
90.16	1480.0	1428.6
90.17	1502.0	1428.6
90.18	1490.0	1428.6
90.19	1467.0	1428.7
90.2	1497.0	1428.7
90.21	1456.0	1428.7
90.22	1417.0	1428.8
90.23	1448.0	1428.8
90.24	1474.0	1428.8
90.25	1471.0	1428.8
90.26	1450.0	1428.9
90.27	1447.0	1428.9
90.28	1452.0	1428.9
90.29	1448.0	1429.0
90.3	1462.0	1429.0
90.31	1474.0	1429.0
90.32	1461.0	1429.1
90.33	1449.0	1429.1
90.34	1458.0	1429.1
90.35	1481.0	1429.2
90.36	1486.0	1429.2
90.37	1483.0	1429.2
90.38	1477.0	1429.2
90.39	1467.0	1429.3
90.4	1427.0	1429.3
90.41	1418.0	1429.3
90.42	1421.0	1429.4
90.43	1418.0	1429.4
90.44	1468.0	1429.4
90.45	1511.0	1429.5
90.46	1492.0	1429.5
90.47	1497.0	1429.5
90.48	1482.0	1429.6
90.49	1479.0	1429.6
90.5	1503.0	1429.7
90.51	1472.0	1429.7
90.52	1424.0	1429.7
90.53	1412.0	1429.8
90.54	1445.0	1429.8
90.55	1483.0	1429.8
90.56	1511.0	1429.9
90.57	1502.0	1429.9
90.58	1486.0	1429.9
90.59	1476.0	1430.0
90.6	1459.0	1430.0
90.61	1464.0	1430.0
90.62	1444.0	1430.1
90.63	1414.0	1430.1
90.64	1422.0	1430.2
90.65	1471.0	1430.2
90.66	1477.0	1430.2
90.67	1440.0	1430.3
90.68	1435.0	1430.3
90.69	1453.0	1430.3
90.7	1452.0	1430.4
90.71	1443.0	1430.4
90.72	1429.0	1430.5
90.73	1435.0	1430.5
90.74	1491.0	1430.5
90.75	1522.0	1430.6
90.76	1499.0	1430.6
90.77	1469.0	1430.7
90.78	1453.0	1430.7
90.79	1445.0	1430.7
90.8	1462.0	1430.8
90.81	1494.0	1430.8
90.82	1494.0	1430.9
90.83	1452.0	1430.9
90.84	1430.0	1430.9
90.85	1446.0	1431.0
90.86	1446.0	1431.0
90.87	1430.0	1431.1
90.88	1461.0	1431.1
90.89	1481.0	1431.1
90.9	1437.0	1431.2
90.91	1420.0	1431.2
90.92	1453.0	1431.3
90.93	1469.0	1431.3
90.94	1445.0	1431.3
90.95	1433.0	1431.4
90.96	1448.0	1431.4
90.97	1452.0	1431.5
90.98	1430.0	1431.5
90.99	1419.0	1431.6
91.0	1437.0	1431.6
91.01	1431.0	1431.6
91.02	1417.0	1431.7
91.03	1435.0	1431.7
91.04	1443.0	1431.8
91.05	1442.0	1431.8
91.06	1456.0	1431.9
91.07	1451.0	1431.9
91.08	1431.0	1431.9
91.09	1450.0	1432.0
91.1	1453.0	1432.0
91.11	1436.0	1432.1
91.12	1436.0	1432.1
91.13	1442.0	1432.2
91.14	1455.0	1432.2
91.15	1489.0	1432.2
91.16	1513.0	1432.3
91.17	1494.0	1432.3
91.18	1489.0	1432.4
91.19	1498.0	1432.4
91.2	1484.0	1432.5
91.21	1445.0	1432.5
91.22	1433.0	1432.6
91.23	1462.0	1432.6
91.24	1468.0	1432.7
91.25	1464.0	1432.7
91.26	1452.0	1432.7
91.27	1478.0	1432.8
91.28	1481.0	1432.8
91.29	1438.0	1432.9
91.3	1460.0	1432.9
91.31	1484.0	1433.0
91.32	1455.0	1433.0
91.33	1458.0	1433.1
91.34	1447.0	1433.1
91.35	1428.0	1433.2
91.36	1444.0	1433.2
91.37	1437.0	1433.3
91.38	1464.0	1433.3
91.39	1510.0	1433.3
91.4	1491.0	1433.4
91.41	1460.0	1433.4
91.42	1447.0	1433.5
91.43	1413.0	1433.5
91.44	1414.0	1433.6
91.45	1441.0	1433.6
91.46	1436.0	1433.7
91.47	1436.0	1433.7
91.48	1452.0	1433.8
91.49	1476.0	1433.8
91.5	1506.0	1433.9
91.51	1477.0	1433.9
91.52	1447.0	1434.0
91.53	1432.0	1434.0
91.54	1424.0	1434.1
91.55	1448.0	1434.1
91.56	1470.0	1434.2
91.57	1496.0	1434.2
91.58	1500.0	1434.3
91.59	1483.0	1434.3
91.6	1471.0	1434.4
91.61	1483.0	1434.4
91.62	1494.0	1434.5
91.63	1475.0	1434.5
91.64	1461.0	1434.6
91.65	1481.0	1434.6
91.66	1502.0	1434.7
91.67	1492.0	1434.7
91.68	1473.0	1434.8
91.69	1442.0	1434.8
91.7	1433.0	1434.9
91.71	1488.0	1434.9
91.72	1493.0	1435.0
91.73	1434.0	1435.0
91.74	1444.0	1435.1
91.75	1481.0	1435.1
91.76	1450.0	1435.2
91.77	1441.0	1435.2
91.78	1467.0	1435.3
91.79	1469.0	1435.3
91.8	1460.0	1435.4
91.81	1417.0	1435.4
91.82	1409.0	1435.5
91.83	1444.0	1435.5
91.84	1462.0	1435.6
91.85	1485.0	1435.6
91.86	1504.0	1435.7
91.87	1489.0	1435.7
91.88	1440.0	1435.8
91.89	1390.0	1435.8
91.9	1405.0	1435.9
91.91	1429.0	1435.9
91.92	1464.0	1436.0
91.93	1468.0	1436.0
91.94	1454.0	1436.1
91.95	1477.0	1436.1
91.96	1450.0	1436.2
91.97	1435.0	1436.2
91.98	1463.0	1436.3
91.99	1478.0	1436.3
92.0	1469.0	1436.4
92.01	1464.0	1436.4
92.02	1490.0	1436.5
92.03	1508.0	1436.5
92.04	1492.0	1436.6
92.05	1468.0	1436.6
92.06	1445.0	1436.7
92.07	1458.0	1436.7
92.08	1473.0	1436.8
92.09	1463.0	1436.8
92.1	1466.0	1436.9
92.11	1470.0	1436.9
92.12	1462.0	1437.0
92.13	1463.0	1437.0
92.14	1490.0	1437.1
92.15	1496.0	1437.1
92.16	1473.0	1437.2
92.17	1454.0	1437.3
92.18	1449.0	1437.3
92.19	1478.0	1437.4
92.2	1511.0	1437.4
92.21	1484.0	1437.5
92.22	1468.0	1437.5
92.23	1465.0	1437.6
92.24	1439.0	1437.6
92.25	1441.0	1437.7
92.26	1462.0	1437.7
92.27	1458.0	1437.8
92.28	1452.0	1437.8
92.29	1458.0	1437.9
92.3	1464.0	1437.9
92.31	1455.0	1438.0
92.32	1452.0	1438.0
92.33	1457.0	1438.1
92.34	1463.0	1438.1
92.35	1440.0	1438.2
92.36	1425.0	1438.2
92.37	1427.0	1438.3
92.38	1436.0	1438.4
92.39	1482.0	1438.4
92.4	1497.0	1438.5
92.41	1495.0	1438.5
92.42	1475.0	1438.6
92.43	1475.0	1438.6
92.44	1516.0	1438.7
92.45	1491.0	1438.7
92.46	1439.0	1438.8
92.47	1428.0	1438.8
92.48	1452.0	1438.9
92.49	1477.0	1438.9
92.5	1488.0	1439.0
92.51	1501.0	1439.0
92.52	1492.0	1439.1
92.53	1522.0	1439.1
92.54	1536.0	1439.2
92.55	1487.0	1439.2
92.56	1481.0	1439.3
92.57	1486.0	1439.4
92.58	1458.0	1439.4
92.59	1448.0	1439.5
92.6	1482.0	1439.5
92.61	1468.0	1439.6
92.62	1468.0	1439.6
92.63	1488.0	1439.7
92.64	1490.0	1439.7
92.65	1472.0	1439.8
92.66	1493.0	1439.8
92.67	1524.0	1439.9
92.68	1531.0	1439.9
92.69	1520.0	1440.0
92.7	1522.0	1440.0
92.71	1562.0	1440.1
92.72	1576.0	1440.1
92.73	1545.0	1440.2
92.74	1504.0	1440.2
92.75	1511.0	1440.3
92.76	1516.0	1440.4
92.77	1491.0	1440.4
92.78	1481.0	1440.5
92.79	1511.0	1440.5
92.8	1520.0	1440.6
92.81	1513.0	1440.6
92.82	1521.0	1440.7
92.83	1509.0	1440.7
92.84	1487.0	1440.8
92.85	1493.0	1440.8
92.86	1486.0	1440.9
92.87	1494.0	1440.9
92.88	1501.0	1441.0
92.89	1520.0	1441.0
92.9	1540.0	1441.1
92.91	1522.0	1441.1
92.92	1493.0	1441.2
92.93	1478.0	1441.2
92.94	1487.0	1441.3
92.95	1501.0	1441.3
92.96	1508.0	1441.4
92.97	1503.0	1441.4
92.98	1504.0	1441.5
92.99	1534.0	1441.6
93.0	1528.0	1441.6
93.01	1484.0	1441.7
93.02	1454.0	1441.7
93.03	1469.0	1441.8
93.04	1519.0	1441.8
93.05	1533.0	1441.9
93.06	1512.0	1441.9
93.07	1502.0	1442.0
93.08	1515.0	1442.0
93.09	1525.0	1442.1
93.1	1515.0	1442.1
93.11	1516.0	1442.2
93.12	1521.0	1442.2
93.13	1508.0	1442.3
93.14	1504.0	1442.3
93.15	1522.0	1442.4
93.16	1505.0	1442.4
93.17	1492.0	1442.5
93.18	1501.0	1442.5
93.19	1512.0	1442.6
93.2	1488.0	1442.6
93.21	1484.0	1442.7
93.22	1539.0	1442.7
93.23	1547.0	1442.8
93.24	1515.0	1442.8
93.25	1513.0	1442.9
93.26	1507.0	1442.9
93.27	1464.0	1443.0
93.28	1480.0	1443.0
93.29	1516.0	1443.1
93.3	1502.0	1443.1
93.31	1512.0	1443.2
93.32	1525.0	1443.2
93.33	1521.0	1443.3
93.34	1532.0	1443.3
93.35	1518.0	1443.4
93.36	1511.0	1443.4
93.37	1508.0	1443.5
93.38	1485.0	1443.5
93.39	1456.0	1443.6
93.4	1472.0	1443.6
93.41	1487.0	1443.7
93.42	1513.0	1443.7
93.43	1539.0	1443.8
93.44	1550.0	1443.8
93.45	1533.0	1443.9
93.46	1538.0	1443.9
93.47	1544.0	1444.0
93.48	1549.0	1444.0
93.49	1551.0	1444.1
93.5	1567.0	1444.1
93.51	1568.0	1444.2
93.52	1554.0	1444.2
93.53	1527.0	1444.3
93.54	1510.0	1444.3
93.55	1546.0	1444.4
93.56	1567.0	1444.4
93.57	1551.0	1444.4
93.58	1538.0	1444.5
93.59	1558.0	1444.5
93.6	1560.0	1444.6
93.61	1533.0	1444.6
93.62	1563.0	1444.7
93.63	1601.0	1444.7
93.64	1603.0	1444.8
93.65	1603.0	1444.8
93.66	1591.0	1444.9
93.67	1566.0	1444.9
93.68	1527.0	1445.0
93.69	1528.0	1445.0
93.7	1574.0	1445.1
93.71	1571.0	1445.1
93.72	1548.0	1445.2
93.73	1548.0	1445.2
93.74	1538.0	1445.2
93.75	1547.0	1445.3
93.76	1576.0	1445.3
93.77	1577.0	1445.4
93.78	1586.0	1445.4
93.79	1578.0	1445.5
93.8	1576.0	1445.5
93.81	1615.0	1445.6
93.82	1647.0	1445.6
93.83	1628.0	1445.7
93.84	1591.0	1445.7
93.85	1593.0	1445.7
93.86	1583.0	1445.8
93.87	1567.0	1445.8
93.88	1595.0	1445.9
93.89	1598.0	1445.9
93.9	1566.0	1446.0
93.91	1572.0	1446.0
93.92	1571.0	1446.1
93.93	1603.0	1446.1
93.94	1604.0	1446.1
93.95	1586.0	1446.2
93.96	1580.0	1446.2
93.97	1560.0	1446.3
93.98	1554.0	1446.3
93.99	1570.0	1446.4
94.0	1583.0	1446.4
94.01	1573.0	1446.4
94.02	1582.0	1446.5
94.03	1597.0	1446.5
94.04	1615.0	1446.6
94.05	1574.0	1446.6
94.06	1549.0	1446.7
94.07	1542.0	1446.7
94.08	1535.0	1446.7
94.09	1570.0	1446.8
94.1	1567.0	1446.8
94.11	1575.0	1446.9
94.12	1589.0	1446.9
94.13	1563.0	1446.9
94.14	1529.0	1447.0
94.15	1533.0	1447.0
94.16	1544.0	1447.1
94.17	1568.0	1447.1
94.18	1563.0	1447.2
94.19	1557.0	1447.2
94.2	1556.0	1447.2
94.21	1556.0	1447.3
94.22	1539.0	1447.3
94.23	1558.0	1447.4
94.24	1513.0	1447.4
94.25	1512.0	1447.4
94.26	1500.0	1447.5
94.27	1516.0	1447.5
94.28	1526.0	1447.5
94.29	1556.0	1447.6
94.3	1561.0	1447.6
94.31	1538.0	1447.7
94.32	1479.0	1447.7
94.33	1497.0	1447.7
94.34	1528.0	1447.8
94.35	1518.0	1447.8
94.36	1523.0	1447.9
94.37	1522.0	1447.9
94.38	1513.0	1447.9
94.39	1508.0	1448.0
94.4	1538.0	1448.0
94.41	1545.0	1448.0
94.42	1532.0	1448.1
94.43	1529.0	1448.1
94.44	1521.0	1448.2
94.45	1520.0	1448.2
94.46	1505.0	1448.2
94.47	1509.0	1448.3
94.48	1538.0	1448.3
94.49	1518.0	1448.3
94.5	1493.0	1448.4
94.51	1504.0	1448.4
94.52	1515.0	1448.4
94.53	1521.0	1448.5
94.54	1528.0	1448.5
94.55	1504.0	1448.5
94.56	1495.0	1448.6
94.57	1478.0	1448.6
94.58	1475.0	1448.6
94.59	1508.0	1448.7
94.6	1498.0	1448.7
94.61	1480.0	1448.7
94.62	1465.0	1448.8
94.63	1482.0	1448.8
94.64	1477.0	1448.8
94.65	1475.0	1448.9
94.66	1491.0	1448.9
94.67	1479.0	1448.9
94.68	1485.0	1449.0
94.69	1481.0	1449.0
94.7	1447.0	1449.0
94.71	1458.0	1449.1
94.72	1510.0	1449.1
94.73	1494.0	1449.1
94.74	1499.0	1449.2
94.75	1488.0	1449.2
94.76	1455.0	1449.2
94.77	1454.0	1449.2
94.78	1475.0	1449.3
94.79	1470.0	1449.3
94.8	1479.0	1449.3
94.81	1508.0	1449.4
94.82	1519.0	1449.4
94.83	1491.0	1449.4
94.84	1442.0	1449.5
94.85	1410.0	1449.5
94.86	1423.0	1449.5
94.87	1464.0	1449.5
94.88	1479.0	1449.6
94.89	1481.0	1449.6
94.9	1447.0	1449.6
94.91	1464.0	1449.7
94.92	1478.0	1449.7
94.93	1518.0	1449.7
94.94	1517.0	1449.7
94.95	1451.0	1449.8
94.96	1478.0	1449.8
94.97	1478.0	1449.8
94.98	1468.0	1449.8
94.99	1461.0	1449.9
95.0	1485.0	1449.9
95.01	1454.0	1449.9
95.02	1444.0	1449.9
95.03	1487.0	1450.0
95.04	1489.0	1450.0
95.05	1491.0	1450.0
95.06	1482.0	1450.0
95.07	1468.0	1450.1
95.08	1490.0	1450.1
95.09	1478.0	1450.1
95.1	1472.0	1450.1
95.11	1508.0	1450.2
95.12	1497.0	1450.2
95.13	1463.0	1450.2
95.14	1453.0	1450.2
95.15	1484.0	1450.2
95.16	1497.0	1450.3
95.17	1480.0	1450.3
95.18	1496.0	1450.3
95.19	1475.0	1450.3
95.2	1460.0	1450.3
95.21	1513.0	1450.4
95.22	1514.0	1450.4
95.23	1494.0	1450.4
95.24	1516.0	1450.4
95.25	1501.0	1450.4
95.26	1433.0	1450.5
95.27	1400.0	1450.5
95.28	1464.0	1450.5
95.29	1496.0	1450.5
95.3	1486.0	1450.5
95.31	1483.0	1450.6
95.32	1491.0	1450.6
95.33	1469.0	1450.6
95.34	1514.0	1450.6
95.35	1534.0	1450.6
95.36	1502.0	1450.6
95.37	1492.0	1450.7
95.38	1451.0	1450.7
95.39	1507.0	1450.7
95.4	1522.0	1450.7
95.41	1499.0	1450.7
95.42	1494.0	1450.7
95.43	1516.0	1450.8
95.44	1491.0	1450.8
95.45	1465.0	1450.8
95.46	1458.0	1450.8
95.47	1471.0	1450.8
95.48	1503.0	1450.8
95.49	1528.0	1450.8
95.5	1492.0	1450.9
95.51	1481.0	1450.9
95.52	1491.0	1450.9
95.53	1463.0	1450.9
95.54	1465.0	1450.9
95.55	1475.0	1450.9
95.56	1495.0	1450.9
95.57	1464.0	1451.0
95.58	1471.0	1451.0
95.59	1472.0	1451.0
95.6	1462.0	1451.0
95.61	1480.0	1451.0
95.62	1460.0	1451.0
95.63	1483.0	1451.0
95.64	1495.0	1451.0
95.65	1493.0	1451.0
95.66	1473.0	1451.0
95.67	1460.0	1451.1
95.68	1445.0	1451.1
95.69	1462.0	1451.1
95.7	1488.0	1451.1
95.71	1474.0	1451.1
95.72	1455.0	1451.1
95.73	1435.0	1451.1
95.74	1479.0	1451.1
95.75	1456.0	1451.1
95.76	1465.0	1451.1
95.77	1472.0	1451.1
95.78	1438.0	1451.2
95.79	1451.0	1451.2
95.8	1476.0	1451.2
95.81	1468.0	1451.2
95.82	1464.0	1451.2
95.83	1486.0	1451.2
95.84	1463.0	1451.2
95.85	1438.0	1451.2
95.86	1454.0	1451.2
95.87	1459.0	1451.2
95.88	1445.0	1451.2
95.89	1439.0	1451.2
95.9	1483.0	1451.2
95.91	1508.0	1451.2
95.92	1530.0	1451.2
95.93	1448.0	1451.2
95.94	1439.0	1451.2
95.95	1460.0	1451.2
95.96	1494.0	1451.2
95.97	1462.0	1451.3
95.98	1486.0	1451.3
95.99	1518.0	1451.3
96.0	1511.0	1451.3
96.01	1469.0	1451.3
96.02	1427.0	1451.3
96.03	1409.0	1451.3
96.04	1457.0	1451.3
96.05	1489.0	1451.3
96.06	1478.0	1451.3
96.07	1434.0	1451.3
96.08	1460.0	1451.3
96.09	1483.0	1451.3
96.1	1417.0	1451.3
96.11	1447.0	1451.3
96.12	1484.0	1451.3
96.13	1475.0	1451.3
96.14	1472.0	1451.3
96.15	1478.0	1451.3
96.16	1455.0	1451.3
96.17	1480.0	1451.3
96.18	1512.0	1451.3
96.19	1502.0	1451.3
96.2	1462.0	1451.3
96.21	1449.0	1451.3
96.22	1453.0	1451.3
96.23	1439.0	1451.3
96.24	1424.0	1451.3
96.25	1469.0	1451.3
96.26	1483.0	1451.3
96.27	1472.0	1451.3
96.28	1462.0	1451.3
96.29	1478.0	1451.2
96.3	1517.0	1451.2
96.31	1516.0	1451.2
96.32	1513.0	1451.2
96.33	1496.0	1451.2
96.34	1522.0	1451.2
96.35	1481.0	1451.2
96.36	1441.0	1451.2
96.37	1450.0	1451.2
96.38	1460.0	1451.2
96.39	1498.0	1451.2
96.4	1427.0	1451.2
96.41	1421.0	1451.2
96.42	1441.0	1451.2
96.43	1465.0	1451.2
96.44	1450.0	1451.2
96.45	1428.0	1451.2
96.46	1474.0	1451.2
96.47	1458.0	1451.2
96.48	1457.0	1451.2
96.49	1471.0	1451.1
96.5	1464.0	1451.1
96.51	1491.0	1451.1
96.52	1466.0	1451.1
96.53	1518.0	1451.1
96.54	1540.0	1451.1
96.55	1499.0	1451.1
96.56	1497.0	1451.1
96.57	1476.0	1451.1
96.58	1415.0	1451.1
96.59	1486.0	1451.1
96.6	1491.0	1451.1
96.61	1453.0	1451.1
96.62	1481.0	1451.0
96.63	1493.0	1451.0
96.64	1507.0	1451.0
96.65	1511.0	1451.0
96.66	1518.0	1451.0
96.67	1463.0	1451.0
96.68	1457.0	1451.0
96.69	1485.0	1451.0
96.7	1491.0	1451.0
96.71	1464.0	1451.0
96.72	1460.0	1450.9
96.73	1484.0	1450.9
96.74	1434.0	1450.9
96.75	1418.0	1450.9
96.76	1427.0	1450.9
96.77	1432.0	1450.9
96.78	1460.0	1450.9
96.79	1454.0	1450.9
96.8	1504.0	1450.8
96.81	1501.0	1450.8
96.82	1479.0	1450.8
96.83	1485.0	1450.8
96.84	1464.0	1450.8
96.85	1474.0	1450.8
96.86	1472.0	1450.8
96.87	1475.0	1450.8
96.88	1480.0	1450.7
96.89	1470.0	1450.7
96.9	1458.0	1450.7
96.91	1445.0	1450.7
96.92	1428.0	1450.7
96.93	1451.0	1450.7
96.94	1441.0	1450.7
96.95	1436.0	1450.6
96.96	1452.0	1450.6
96.97	1483.0	1450.6
96.98	1458.0	1450.6
96.99	1492.0	1450.6
97.0	1464.0	1450.6
97.01	1464.0	1450.6
97.02	1453.0	1450.5
97.03	1485.0	1450.5
97.04	1454.0	1450.5
97.05	1434.0	1450.5
97.06	1435.0	1450.5
97.07	1454.0	1450.5
97.08	1485.0	1450.4
97.09	1487.0	1450.4
97.1	1449.0	1450.4
97.11	1413.0	1450.4
97.12	1418.0	1450.4
97.13	1433.0	1450.4
97.14	1456.0	1450.3
97.15	1443.0	1450.3
97.16	1497.0	1450.3
97.17	1475.0	1450.3
97.18	1473.0	1450.3
97.19	1464.0	1450.3
97.2	1440.0	1450.2
97.21	1424.0	1450.2
97.22	1426.0	1450.2
97.23	1483.0	1450.2
97.24	1473.0	1450.2
97.25	1463.0	1450.1
97.26	1470.0	1450.1
97.27	1458.0	1450.1
97.28	1508.0	1450.1
97.29	1514.0	1450.1
97.3	1486.0	1450.0
97.31	1451.0	1450.0
97.32	1474.0	1450.0
97.33	1480.0	1450.0
97.34	1461.0	1450.0
97.35	1438.0	1449.9
97.36	1481.0	1449.9
97.37	1490.0	1449.9
97.38	1458.0	1449.9
97.39	1460.0	1449.9
97.4	1441.0	1449.8
97.41	1491.0	1449.8
97.42	1510.0	1449.8
97.43	1440.0	1449.8
97.44	1433.0	1449.7
97.45	1471.0	1449.7
97.46	1474.0	1449.7
97.47	1443.0	1449.7
97.48	1451.0	1449.7
97.49	1430.0	1449.6
97.5	1447.0	1449.6
97.51	1460.0	1449.6
97.52	1459.0	1449.6
97.53	1474.0	1449.5
97.54	1487.0	1449.5
97.55	1504.0	1449.5
97.56	1472.0	1449.5
97.57	1466.0	1449.5
97.58	1492.0	1449.4
97.59	1488.0	1449.4
97.6	1468.0	1449.4
97.61	1468.0	1449.4
97.62	1474.0	1449.3
97.63	1490.0	1449.3
97.64	1490.0	1449.3
97.65	1506.0	1449.3
97.66	1471.0	1449.2
97.67	1461.0	1449.2
97.68	1480.0	1449.2
97.69	1458.0	1449.2
97.7	1465.0	1449.1
97.71	1478.0	1449.1
97.72	1521.0	1449.1
97.73	1487.0	1449.1
97.74	1477.0	1449.0
97.75	1457.0	1449.0
97.76	1452.0	1449.0
97.77	1467.0	1449.0
97.78	1512.0	1448.9
97.79	1520.0	1448.9
97.8	1486.0	1448.9
97.81	1490.0	1448.9
97.82	1461.0	1448.8
97.83	1440.0	1448.8
97.84	1401.0	1448.8
97.85	1418.0	1448.8
97.86	1528.0	1448.7
97.87	1536.0	1448.7
97.88	1545.0	1448.7
97.89	1531.0	1448.6
97.9	1484.0	1448.6
97.91	1480.0	1448.6
97.92	1476.0	1448.6
97.93	1477.0	1448.5
97.94	1450.0	1448.5
97.95	1462.0	1448.5
97.96	1469.0	1448.4
97.97	1461.0	1448.4
97.98	1474.0	1448.4
97.99	1493.0	1448.4
98.0	1488.0	1448.3
98.01	1446.0	1448.3
98.02	1454.0	1448.3
98.03	1486.0	1448.3
98.04	1524.0	1448.2
98.05	1493.0	1448.2
98.06	1449.0	1448.2
98.07	1426.0	1448.1
98.08	1438.0	1448.1
98.09	1463.0	1448.1
98.1	1481.0	1448.0
98.11	1469.0	1448.0
98.12	1493.0	1448.0
98.13	1462.0	1448.0
98.14	1479.0	1447.9
98.15	1500.0	1447.9
98.16	1522.0	1447.9
98.17	1536.0	1447.8
98.18	1525.0	1447.8
98.19	1531.0	1447.8
98.2	1499.0	1447.7
98.21	1470.0	1447.7
98.22	1477.0	1447.7
98.23	1504.0	1447.7
98.24	1498.0	1447.6
98.25	1516.0	1447.6
98.26	1537.0	1447.6
98.27	1472.0	1447.5
98.28	1487.0	1447.5
98.29	1569.0	1447.5
98.3	1559.0	1447.4
98.31	1481.0	1447.4
98.32	1494.0	1447.4
98.33	1489.0	1447.3
98.34	1523.0	1447.3
98.35	1529.0	1447.3
98.36	1506.0	1447.3
98.37	1480.0	1447.2
98.38	1494.0	1447.2
98.39	1480.0	1447.2
98.4	1502.0	1447.1
98.41	1521.0	1447.1
98.42	1524.0	1447.1
98.43	1558.0	1447.0
98.44	1534.0	1447.0
98.45	1535.0	1447.0
98.46	1585.0	1446.9
98.47	1519.0	1446.9
98.48	1501.0	1446.9
98.49	1518.0	1446.8
98.5	1486.0	1446.8
98.51	1525.0	1446.8
98.52	1573.0	1446.7
98.53	1570.0	1446.7
98.54	1575.0	1446.7
98.55	1553.0	1446.6
98.56	1584.0	1446.6
98.57	1604.0	1446.6
98.58	1540.0	1446.5
98.59	1532.0	1446.5
98.6	1569.0	1446.5
98.61	1594.0	1446.4
98.62	1581.0	1446.4
98.63	1566.0	1446.4
98.64	1529.0	1446.3
98.65	1550.0	1446.3
98.66	1539.0	1446.3
98.67	1517.0	1446.2
98.68	1558.0	1446.2
98.69	1565.0	1446.2
98.7	1602.0	1446.1
98.71	1596.0	1446.1
98.72	1570.0	1446.1
98.73	1528.0	1446.0
98.74	1579.0	1446.0
98.75	1624.0	1446.0
98.76	1570.0	1445.9
98.77	1564.0	1445.9
98.78	1570.0	1445.9
98.79	1598.0	1445.8
98.8	1609.0	1445.8
98.81	1622.0	1445.7
98.82	1590.0	1445.7
98.83	1624.0	1445.7
98.84	1619.0	1445.6
98.85	1622.0	1445.6
98.86	1619.0	1445.6
98.87	1611.0	1445.5
98.88	1636.0	1445.5
98.89	1595.0	1445.5
98.9	1607.0	1445.4
98.91	1581.0	1445.4
98.92	1641.0	1445.4
98.93	1643.0	1445.3
98.94	1673.0	1445.3
98.95	1645.0	1445.2
98.96	1617.0	1445.2
98.97	1650.0	1445.2
98.98	1670.0	1445.1
98.99	1649.0	1445.1
99.0	1617.0	1445.1
99.01	1625.0	1445.0
99.02	1650.0	1445.0
99.03	1676.0	1445.0
99.04	1689.0	1444.9
99.05	1697.0	1444.9
99.06	1709.0	1444.9
99.07	1699.0	1444.8
99.08	1661.0	1444.8
99.09	1646.0	1444.7
99.1	1658.0	1444.7
99.11	1620.0	1444.7
99.12	1673.0	1444.6
99.13	1679.0	1444.6
99.14	1661.0	1444.6
99.15	1637.0	1444.5
99.16	1595.0	1444.5
99.17	1654.0	1444.4
99.18	1605.0	1444.4
99.19	1605.0	1444.4
99.2	1615.0	1444.3
99.21	1640.0	1444.3
99.22	1624.0	1444.3
99.23	1658.0	1444.2
99.24	1676.0	1444.2
99.25	1652.0	1444.2
99.26	1630.0	1444.1
99.27	1625.0	1444.1
99.28	1641.0	1444.0
99.29	1616.0	1444.0
99.3	1598.0	1444.0
99.31	1663.0	1443.9
99.32	1621.0	1443.9
99.33	1622.0	1443.9
99.34	1611.0	1443.8
99.35	1633.0	1443.8
99.36	1603.0	1443.7
99.37	1665.0	1443.7
99.38	1619.0	1443.7
99.39	1587.0	1443.6
99.4	1614.0	1443.6
99.41	1618.0	1443.6
99.42	1580.0	1443.5
99.43	1573.0	1443.5
99.44	1595.0	1443.4
99.45	1575.0	1443.4
99.46	1568.0	1443.4
99.47	1585.0	1443.3
99.48	1607.0	1443.3
99.49	1578.0	1443.2
99.5	1570.0	1443.2
99.51	1587.0	1443.2
99.52	1610.0	1443.1
99.53	1606.0	1443.1
99.54	1582.0	1443.1
99.55	1554.0	1443.0
99.56	1579.0	1443.0
99.57	1570.0	1442.9
99.58	1563.0	1442.9
99.59	1539.0	1442.9
99.6	1570.0	1442.8
99.61	1543.0	1442.8
99.62	1573.0	1442.8
99.63	1599.0	1442.7
99.64	1638.0	1442.7
99.65	1596.0	1442.6
99.66	1556.0	1442.6
99.67	1533.0	1442.6
99.68	1502.0	1442.5
99.69	1514.0	1442.5
99.7	1543.0	1442.4
99.71	1565.0	1442.4
99.72	1541.0	1442.4
99.73	1529.0	1442.3
99.74	1491.0	1442.3
99.75	1528.0	1442.3
99.76	1559.0	1442.2
99.77	1539.0	1442.2
99.78	1554.0	1442.1
99.79	1515.0	1442.1
99.8	1479.0	1442.1
99.81	1486.0	1442.0
99.82	1491.0	1442.0
99.83	1501.0	1441.9
99.84	1541.0	1441.9
99.85	1527.0	1441.9
99.86	1474.0	1441.8
99.87	1526.0	1441.8
99.88	1539.0	1441.8
99.89	1549.0	1441.7
99.9	1568.0	1441.7
99.91	1551.0	1441.6
99.92	1553.0	1441.6
99.93	1570.0	1441.6
99.94	1547.0	1441.5
99.95	1534.0	1441.5
99.96	1513.0	1441.4
99.97	1571.0	1441.4
99.98	1539.0	1441.4
99.99	1522.0	1441.3
100.0	1545.0	1441.3
