Thick_LiMnO2_0p6mm_p
Wavelength = 1.54059 Ã… (Cu)
Angle	I(o)	I(b)
10.0	1545.0	1533.5
10.01	1544.0	1534.3
10.02	1529.0	1535.2
10.03	1542.0	1536.1
10.04	1547.0	1537.0
10.05	1546.0	1537.8
10.06	1520.0	1538.7
10.07	1587.0	1539.6
10.08	1578.0	1540.4
10.09	1571.0	1541.3
10.1	1601.0	1542.2
10.11	1563.0	1543.0
10.12	1587.0	1543.9
10.13	1576.0	1544.8
10.14	1611.0	1545.6
10.15	1550.0	1546.5
10.16	1506.0	1547.4
10.17	1563.0	1548.3
10.18	1587.0	1549.1
10.19	1559.0	1550.0
10.2	1592.0	1550.9
10.21	1578.0	1551.7
10.22	1564.0	1552.6
10.23	1574.0	1553.5
10.24	1615.0	1554.3
10.25	1641.0	1555.2
10.26	1569.0	1556.1
10.27	1557.0	1557.0
10.28	1555.0	1557.8
10.29	1493.0	1558.7
10.3	1564.0	1559.6
10.31	1590.0	1560.4
10.32	1585.0	1561.3
10.33	1611.0	1562.2
10.34	1586.0	1563.1
10.35	1563.0	1563.9
10.36	1615.0	1564.8
10.37	1582.0	1565.7
10.38	1617.0	1566.5
10.39	1587.0	1567.4
10.4	1593.0	1568.3
10.41	1617.0	1569.2
10.42	1605.0	1570.0
10.43	1611.0	1570.9
10.44	1583.0	1571.8
10.45	1599.0	1572.7
10.46	1596.0	1573.5
10.47	1580.0	1574.4
10.48	1604.0	1575.3
10.49	1569.0	1576.2
10.5	1583.0	1577.0
10.51	1577.0	1577.9
10.52	1582.0	1578.8
10.53	1609.0	1579.7
10.54	1568.0	1580.5
10.55	1599.0	1581.4
10.56	1649.0	1582.3
10.57	1598.0	1583.2
10.58	1617.0	1584.1
10.59	1612.0	1584.9
10.6	1634.0	1585.8
10.61	1640.0	1586.7
10.62	1597.0	1587.6
10.63	1596.0	1588.4
10.64	1625.0	1589.3
10.65	1604.0	1590.2
10.66	1607.0	1591.1
10.67	1653.0	1592.0
10.68	1648.0	1592.8
10.69	1600.0	1593.7
10.7	1567.0	1594.6
10.71	1597.0	1595.5
10.72	1629.0	1596.4
10.73	1620.0	1597.3
10.74	1610.0	1598.1
10.75	1600.0	1599.0
10.76	1592.0	1599.9
10.77	1611.0	1600.8
10.78	1607.0	1601.7
10.79	1644.0	1602.6
10.8	1642.0	1603.5
10.81	1620.0	1604.3
10.82	1615.0	1605.2
10.83	1605.0	1606.1
10.84	1636.0	1607.0
10.85	1619.0	1607.9
10.86	1643.0	1608.8
10.87	1646.0	1609.7
10.88	1632.0	1610.6
10.89	1621.0	1611.5
10.9	1619.0	1612.3
10.91	1611.0	1613.2
10.92	1577.0	1614.1
10.93	1669.0	1615.0
10.94	1632.0	1615.9
10.95	1611.0	1616.8
10.96	1603.0	1617.7
10.97	1588.0	1618.6
10.98	1659.0	1619.5
10.99	1675.0	1620.4
11.0	1690.0	1621.3
11.01	1673.0	1622.2
11.02	1696.0	1623.1
11.03	1645.0	1624.0
11.04	1654.0	1624.9
11.05	1650.0	1625.8
11.06	1629.0	1626.7
11.07	1602.0	1627.6
11.08	1610.0	1628.5
11.09	1655.0	1629.4
11.1	1669.0	1630.3
11.11	1641.0	1631.2
11.12	1591.0	1632.1
11.13	1627.0	1633.0
11.14	1672.0	1633.9
11.15	1651.0	1634.8
11.16	1615.0	1635.7
11.17	1621.0	1636.6
11.18	1621.0	1637.5
11.19	1679.0	1638.4
11.2	1673.0	1639.3
11.21	1689.0	1640.2
11.22	1680.0	1641.1
11.23	1653.0	1642.0
11.24	1657.0	1643.0
11.25	1688.0	1643.9
11.26	1622.0	1644.8
11.27	1659.0	1645.7
11.28	1670.0	1646.6
11.29	1651.0	1647.5
11.3	1676.0	1648.4
11.31	1680.0	1649.3
11.32	1671.0	1650.2
11.33	1676.0	1651.2
11.34	1722.0	1652.1
11.35	1692.0	1653.0
11.36	1675.0	1653.9
11.37	1654.0	1654.8
11.38	1658.0	1655.7
11.39	1646.0	1656.7
11.4	1645.0	1657.6
11.41	1613.0	1658.5
11.42	1643.0	1659.4
11.43	1726.0	1660.3
11.44	1737.0	1661.2
11.45	1659.0	1662.2
11.46	1678.0	1663.1
11.47	1686.0	1664.0
11.48	1694.0	1664.9
11.49	1677.0	1665.8
11.5	1672.0	1666.8
11.51	1632.0	1667.7
11.52	1671.0	1668.6
11.53	1700.0	1669.5
11.54	1714.0	1670.4
11.55	1747.0	1671.4
11.56	1697.0	1672.3
11.57	1673.0	1673.2
11.58	1660.0	1674.1
11.59	1672.0	1675.0
11.6	1639.0	1676.0
11.61	1712.0	1676.9
11.62	1713.0	1677.8
11.63	1696.0	1678.7
11.64	1706.0	1679.7
11.65	1694.0	1680.6
11.66	1723.0	1681.5
11.67	1714.0	1682.4
11.68	1696.0	1683.4
11.69	1680.0	1684.3
11.7	1653.0	1685.2
11.71	1658.0	1686.1
11.72	1649.0	1687.0
11.73	1685.0	1688.0
11.74	1664.0	1688.9
11.75	1664.0	1689.8
11.76	1686.0	1690.7
11.77	1641.0	1691.7
11.78	1658.0	1692.6
11.79	1688.0	1693.5
11.8	1741.0	1694.4
11.81	1755.0	1695.4
11.82	1722.0	1696.3
11.83	1680.0	1697.2
11.84	1714.0	1698.1
11.85	1690.0	1699.1
11.86	1702.0	1700.0
11.87	1735.0	1700.9
11.88	1752.0	1701.8
11.89	1755.0	1702.8
11.9	1752.0	1703.7
11.91	1770.0	1704.6
11.92	1714.0	1705.5
11.93	1711.0	1706.4
11.94	1778.0	1707.4
11.95	1810.0	1708.3
11.96	1755.0	1709.2
11.97	1744.0	1710.1
11.98	1749.0	1711.1
11.99	1778.0	1712.0
12.0	1722.0	1712.9
12.01	1692.0	1713.8
12.02	1786.0	1714.8
12.03	1769.0	1715.7
12.04	1784.0	1716.6
12.05	1759.0	1717.5
12.06	1715.0	1718.4
12.07	1704.0	1719.4
12.08	1726.0	1720.3
12.09	1752.0	1721.2
12.1	1717.0	1722.1
12.11	1767.0	1723.0
12.12	1811.0	1724.0
12.13	1768.0	1724.9
12.14	1759.0	1725.8
12.15	1773.0	1726.7
12.16	1739.0	1727.6
12.17	1758.0	1728.6
12.18	1778.0	1729.5
12.19	1791.0	1730.4
12.2	1771.0	1731.3
12.21	1769.0	1732.2
12.22	1806.0	1733.1
12.23	1765.0	1734.1
12.24	1778.0	1735.0
12.25	1798.0	1735.9
12.26	1787.0	1736.8
12.27	1787.0	1737.7
12.28	1803.0	1738.6
12.29	1817.0	1739.5
12.3	1820.0	1740.5
12.31	1799.0	1741.4
12.32	1769.0	1742.3
12.33	1767.0	1743.2
12.34	1783.0	1744.1
12.35	1752.0	1745.0
12.36	1752.0	1745.9
12.37	1808.0	1746.8
12.38	1814.0	1747.7
12.39	1791.0	1748.7
12.4	1768.0	1749.6
12.41	1818.0	1750.5
12.42	1810.0	1751.4
12.43	1823.0	1752.3
12.44	1746.0	1753.2
12.45	1749.0	1754.1
12.46	1804.0	1755.0
12.47	1767.0	1755.9
12.48	1733.0	1756.8
12.49	1736.0	1757.7
12.5	1796.0	1758.6
12.51	1784.0	1759.5
12.52	1725.0	1760.4
12.53	1791.0	1761.3
12.54	1814.0	1762.2
12.55	1781.0	1763.1
12.56	1736.0	1764.0
12.57	1774.0	1764.9
12.58	1808.0	1765.8
12.59	1787.0	1766.7
12.6	1803.0	1767.6
12.61	1822.0	1768.5
12.62	1835.0	1769.4
12.63	1843.0	1770.3
12.64	1783.0	1771.2
12.65	1836.0	1772.1
12.66	1861.0	1773.0
12.67	1809.0	1773.9
12.68	1825.0	1774.7
12.69	1795.0	1775.6
12.7	1762.0	1776.5
12.71	1797.0	1777.4
12.72	1811.0	1778.3
12.73	1823.0	1779.2
12.74	1826.0	1780.1
12.75	1796.0	1781.0
12.76	1775.0	1781.8
12.77	1726.0	1782.7
12.78	1771.0	1783.6
12.79	1789.0	1784.5
12.8	1755.0	1785.4
12.81	1778.0	1786.2
12.82	1816.0	1787.1
12.83	1859.0	1788.0
12.84	1871.0	1788.9
12.85	1930.0	1789.8
12.86	1855.0	1790.6
12.87	1863.0	1791.5
12.88	1809.0	1792.4
12.89	1809.0	1793.2
12.9	1887.0	1794.1
12.91	1835.0	1795.0
12.92	1841.0	1795.9
12.93	1836.0	1796.7
12.94	1856.0	1797.6
12.95	1868.0	1798.5
12.96	1832.0	1799.3
12.97	1809.0	1800.2
12.98	1834.0	1801.0
12.99	1828.0	1801.9
13.0	1817.0	1802.8
13.01	1819.0	1803.6
13.02	1817.0	1804.5
13.03	1793.0	1805.3
13.04	1788.0	1806.2
13.05	1815.0	1807.1
13.06	1833.0	1807.9
13.07	1882.0	1808.8
13.08	1874.0	1809.6
13.09	1854.0	1810.5
13.1	1819.0	1811.3
13.11	1818.0	1812.2
13.12	1860.0	1813.0
13.13	1910.0	1813.9
13.14	1831.0	1814.7
13.15	1816.0	1815.5
13.16	1844.0	1816.4
13.17	1852.0	1817.2
13.18	1859.0	1818.1
13.19	1851.0	1818.9
13.2	1852.0	1819.7
13.21	1843.0	1820.6
13.22	1847.0	1821.4
13.23	1821.0	1822.2
13.24	1810.0	1823.1
13.25	1844.0	1823.9
13.26	1833.0	1824.7
13.27	1877.0	1825.6
13.28	1899.0	1826.4
13.29	1892.0	1827.2
13.3	1928.0	1828.0
13.31	1890.0	1828.9
13.32	1885.0	1829.7
13.33	1870.0	1830.5
13.34	1831.0	1831.3
13.35	1847.0	1832.1
13.36	1848.0	1833.0
13.37	1820.0	1833.8
13.38	1861.0	1834.6
13.39	1854.0	1835.4
13.4	1838.0	1836.2
13.41	1841.0	1837.0
13.42	1871.0	1837.8
13.43	1912.0	1838.6
13.44	1901.0	1839.4
13.45	1913.0	1840.3
13.46	1898.0	1841.1
13.47	1897.0	1841.9
13.48	1890.0	1842.7
13.49	1934.0	1843.5
13.5	1932.0	1844.3
13.51	1931.0	1845.1
13.52	1882.0	1845.8
13.53	1905.0	1846.6
13.54	1939.0	1847.4
13.55	1967.0	1848.2
13.56	1959.0	1849.0
13.57	1927.0	1849.8
13.58	1948.0	1850.6
13.59	1907.0	1851.4
13.6	1870.0	1852.2
13.61	1913.0	1852.9
13.62	1941.0	1853.7
13.63	1907.0	1854.5
13.64	1917.0	1855.3
13.65	1929.0	1856.1
13.66	1922.0	1856.8
13.67	1926.0	1857.6
13.68	1939.0	1858.4
13.69	1946.0	1859.2
13.7	1915.0	1859.9
13.71	1932.0	1860.7
13.72	1913.0	1861.5
13.73	1951.0	1862.2
13.74	1948.0	1863.0
13.75	1935.0	1863.8
13.76	1924.0	1864.5
13.77	1974.0	1865.3
13.78	1956.0	1866.1
13.79	1938.0	1866.8
13.8	1934.0	1867.6
13.81	1957.0	1868.3
13.82	1940.0	1869.1
13.83	1916.0	1869.8
13.84	1948.0	1870.6
13.85	1953.0	1871.3
13.86	1918.0	1872.1
13.87	1936.0	1872.8
13.88	1947.0	1873.6
13.89	1925.0	1874.3
13.9	1963.0	1875.1
13.91	1954.0	1875.8
13.92	1931.0	1876.6
13.93	1945.0	1877.3
13.94	1971.0	1878.0
13.95	1969.0	1878.8
13.96	1966.0	1879.5
13.97	1962.0	1880.2
13.98	1948.0	1881.0
13.99	1975.0	1881.7
14.0	1995.0	1882.4
14.01	1979.0	1883.2
14.02	1975.0	1883.9
14.03	1982.0	1884.6
14.04	1908.0	1885.3
14.05	1899.0	1886.1
14.06	1971.0	1886.8
14.07	1998.0	1887.5
14.08	1978.0	1888.2
14.09	1995.0	1888.9
14.1	1997.0	1889.6
14.11	2018.0	1890.4
14.12	1981.0	1891.1
14.13	1979.0	1891.8
14.14	1977.0	1892.5
14.15	1986.0	1893.2
14.16	1980.0	1893.9
14.17	1964.0	1894.6
14.18	2024.0	1895.3
14.19	2013.0	1896.0
14.2	1990.0	1896.7
14.21	2003.0	1897.4
14.22	1988.0	1898.1
14.23	1949.0	1898.8
14.24	1951.0	1899.5
14.25	1966.0	1900.2
14.26	1928.0	1900.9
14.27	1932.0	1901.6
14.28	1963.0	1902.3
14.29	1955.0	1903.0
14.3	1939.0	1903.7
14.31	1969.0	1904.3
14.32	1974.0	1905.0
14.33	1997.0	1905.7
14.34	1986.0	1906.4
14.35	1972.0	1907.1
14.36	1998.0	1907.7
14.37	1999.0	1908.4
14.38	1977.0	1909.1
14.39	2011.0	1909.8
14.4	2002.0	1910.4
14.41	1994.0	1911.1
14.42	2028.0	1911.8
14.43	2018.0	1912.4
14.44	1999.0	1913.1
14.45	1997.0	1913.8
14.46	2004.0	1914.4
14.47	2036.0	1915.1
14.48	2017.0	1915.8
14.49	2001.0	1916.4
14.5	2035.0	1917.1
14.51	2039.0	1917.7
14.52	2016.0	1918.4
14.53	1982.0	1919.0
14.54	1971.0	1919.7
14.55	1981.0	1920.3
14.56	1993.0	1921.0
14.57	1997.0	1921.6
14.58	2005.0	1922.3
14.59	1985.0	1922.9
14.6	1986.0	1923.6
14.61	1977.0	1924.2
14.62	2000.0	1924.8
14.63	2034.0	1925.5
14.64	2020.0	1926.1
14.65	1991.0	1926.7
14.66	1989.0	1927.4
14.67	1975.0	1928.0
14.68	1979.0	1928.6
14.69	2006.0	1929.3
14.7	2019.0	1929.9
14.71	2019.0	1930.5
14.72	1959.0	1931.1
14.73	1930.0	1931.8
14.74	1971.0	1932.4
14.75	1980.0	1933.0
14.76	1984.0	1933.6
14.77	1976.0	1934.2
14.78	2007.0	1934.8
14.79	2029.0	1935.5
14.8	2018.0	1936.1
14.81	1959.0	1936.7
14.82	1958.0	1937.3
14.83	1987.0	1937.9
14.84	2016.0	1938.5
14.85	2050.0	1939.1
14.86	2042.0	1939.7
14.87	2059.0	1940.3
14.88	2047.0	1940.9
14.89	2005.0	1941.5
14.9	1964.0	1942.1
14.91	1988.0	1942.7
14.92	2002.0	1943.3
14.93	1974.0	1943.9
14.94	2009.0	1944.5
14.95	2001.0	1945.0
14.96	2018.0	1945.6
14.97	2068.0	1946.2
14.98	2065.0	1946.8
14.99	2015.0	1947.4
15.0	2003.0	1948.0
15.01	2012.0	1948.5
15.02	2047.0	1949.1
15.03	2032.0	1949.7
15.04	2034.0	1950.3
15.05	2048.0	1950.8
15.06	2053.0	1951.4
15.07	2062.0	1952.0
15.08	2013.0	1952.5
15.09	2009.0	1953.1
15.1	2032.0	1953.7
15.11	2001.0	1954.2
15.12	1985.0	1954.8
15.13	1984.0	1955.3
15.14	1978.0	1955.9
15.15	2002.0	1956.5
15.16	2013.0	1957.0
15.17	2057.0	1957.6
15.18	2084.0	1958.1
15.19	2075.0	1958.7
15.2	2057.0	1959.2
15.21	2057.0	1959.8
15.22	2018.0	1960.3
15.23	2018.0	1960.8
15.24	2037.0	1961.4
15.25	2031.0	1961.9
15.26	2031.0	1962.5
15.27	2003.0	1963.0
15.28	2006.0	1963.5
15.29	2014.0	1964.1
15.3	2051.0	1964.6
15.31	2059.0	1965.1
15.32	2008.0	1965.7
15.33	2042.0	1966.2
15.34	2061.0	1966.7
15.35	2036.0	1967.2
15.36	2002.0	1967.8
15.37	1980.0	1968.3
15.38	2015.0	1968.8
15.39	2058.0	1969.3
15.4	2072.0	1969.8
15.41	2054.0	1970.3
15.42	2020.0	1970.8
15.43	2009.0	1971.4
15.44	1989.0	1971.9
15.45	2007.0	1972.4
15.46	2041.0	1972.9
15.47	2052.0	1973.4
15.48	2059.0	1973.9
15.49	2057.0	1974.4
15.5	2057.0	1974.9
15.51	2061.0	1975.4
15.52	2050.0	1975.9
15.53	2049.0	1976.4
15.54	2075.0	1976.9
15.55	2090.0	1977.3
15.56	2065.0	1977.8
15.57	2033.0	1978.3
15.58	2046.0	1978.8
15.59	2064.0	1979.3
15.6	2090.0	1979.8
15.61	2098.0	1980.2
15.62	2041.0	1980.7
15.63	2026.0	1981.2
15.64	2045.0	1981.7
15.65	2041.0	1982.2
15.66	2028.0	1982.6
15.67	2009.0	1983.1
15.68	2020.0	1983.6
15.69	2071.0	1984.0
15.7	2112.0	1984.5
15.71	2092.0	1985.0
15.72	2098.0	1985.4
15.73	2110.0	1985.9
15.74	2075.0	1986.3
15.75	2090.0	1986.8
15.76	2100.0	1987.2
15.77	2110.0	1987.7
15.78	2132.0	1988.1
15.79	2121.0	1988.6
15.8	2074.0	1989.0
15.81	2082.0	1989.5
15.82	2133.0	1989.9
15.83	2205.0	1990.4
15.84	2197.0	1990.8
15.85	2177.0	1991.3
15.86	2154.0	1991.7
15.87	2142.0	1992.1
15.88	2173.0	1992.6
15.89	2217.0	1993.0
15.9	2186.0	1993.4
15.91	2173.0	1993.8
15.92	2192.0	1994.3
15.93	2194.0	1994.7
15.94	2231.0	1995.1
15.95	2266.0	1995.5
15.96	2287.0	1996.0
15.97	2344.0	1996.4
15.98	2389.0	1996.8
15.99	2386.0	1997.2
16.0	2404.0	1997.6
16.01	2438.0	1998.0
16.02	2483.0	1998.4
16.03	2518.0	1998.9
16.04	2537.0	1999.3
16.05	2550.0	1999.7
16.06	2592.0	2000.1
16.07	2680.0	2000.5
16.08	2754.0	2000.9
16.09	2804.0	2001.3
16.1	2838.0	2001.7
16.11	2893.0	2002.1
16.12	3007.0	2002.4
16.13	3149.0	2002.8
16.14	3279.0	2003.2
16.15	3372.0	2003.6
16.16	3463.0	2004.0
16.17	3581.0	2004.4
16.18	3748.0	2004.8
16.19	3887.0	2005.1
16.2	4010.0	2005.5
16.21	4063.0	2005.9
16.22	4065.0	2006.3
16.23	4046.0	2006.6
16.24	4065.0	2007.0
16.25	4082.0	2007.4
16.26	3962.0	2007.7
16.27	3842.0	2008.1
16.28	3760.0	2008.5
16.29	3723.0	2008.8
16.3	3659.0	2009.2
16.31	3547.0	2009.5
16.32	3427.0	2009.9
16.33	3273.0	2010.3
16.34	3162.0	2010.6
16.35	3122.0	2011.0
16.36	3025.0	2011.3
16.37	2931.0	2011.7
16.38	2884.0	2012.0
16.39	2839.0	2012.3
16.4	2783.0	2012.7
16.41	2751.0	2013.0
16.42	2685.0	2013.4
16.43	2661.0	2013.7
16.44	2681.0	2014.0
16.45	2632.0	2014.4
16.46	2588.0	2014.7
16.47	2541.0	2015.0
16.48	2514.0	2015.3
16.49	2488.0	2015.7
16.5	2496.0	2016.0
16.51	2511.0	2016.3
16.52	2475.0	2016.6
16.53	2441.0	2016.9
16.54	2444.0	2017.3
16.55	2423.0	2017.6
16.56	2410.0	2017.9
16.57	2413.0	2018.2
16.58	2435.0	2018.5
16.59	2408.0	2018.8
16.6	2362.0	2019.1
16.61	2322.0	2019.4
16.62	2316.0	2019.7
16.63	2328.0	2020.0
16.64	2331.0	2020.3
16.65	2331.0	2020.6
16.66	2295.0	2020.9
16.67	2266.0	2021.2
16.68	2255.0	2021.5
16.69	2237.0	2021.8
16.7	2222.0	2022.1
16.71	2239.0	2022.3
16.72	2251.0	2022.6
16.73	2257.0	2022.9
16.74	2256.0	2023.2
16.75	2229.0	2023.5
16.76	2217.0	2023.7
16.77	2220.0	2024.0
16.78	2219.0	2024.3
16.79	2229.0	2024.6
16.8	2249.0	2024.8
16.81	2205.0	2025.1
16.82	2163.0	2025.3
16.83	2234.0	2025.6
16.84	2245.0	2025.9
16.85	2185.0	2026.1
16.86	2181.0	2026.4
16.87	2206.0	2026.6
16.88	2216.0	2026.9
16.89	2225.0	2027.1
16.9	2200.0	2027.4
16.91	2195.0	2027.6
16.92	2213.0	2027.9
16.93	2192.0	2028.1
16.94	2178.0	2028.4
16.95	2193.0	2028.6
16.96	2206.0	2028.8
16.97	2207.0	2029.1
16.98	2223.0	2029.3
16.99	2218.0	2029.5
17.0	2194.0	2029.8
17.01	2166.0	2030.0
17.02	2148.0	2030.2
17.03	2171.0	2030.4
17.04	2185.0	2030.7
17.05	2176.0	2030.9
17.06	2173.0	2031.1
17.07	2189.0	2031.3
17.08	2169.0	2031.5
17.09	2111.0	2031.7
17.1	2116.0	2031.9
17.11	2172.0	2032.2
17.12	2215.0	2032.4
17.13	2219.0	2032.6
17.14	2184.0	2032.8
17.15	2161.0	2033.0
17.16	2162.0	2033.2
17.17	2142.0	2033.4
17.18	2155.0	2033.6
17.19	2168.0	2033.7
17.2	2159.0	2033.9
17.21	2174.0	2034.1
17.22	2152.0	2034.3
17.23	2120.0	2034.5
17.24	2115.0	2034.7
17.25	2127.0	2034.9
17.26	2154.0	2035.0
17.27	2178.0	2035.2
17.28	2154.0	2035.4
17.29	2129.0	2035.6
17.3	2139.0	2035.7
17.31	2125.0	2035.9
17.32	2119.0	2036.1
17.33	2100.0	2036.2
17.34	2108.0	2036.4
17.35	2135.0	2036.5
17.36	2133.0	2036.7
17.37	2132.0	2036.9
17.38	2120.0	2037.0
17.39	2126.0	2037.2
17.4	2146.0	2037.3
17.41	2164.0	2037.5
17.42	2154.0	2037.6
17.43	2158.0	2037.8
17.44	2173.0	2037.9
17.45	2141.0	2038.0
17.46	2103.0	2038.2
17.47	2091.0	2038.3
17.48	2119.0	2038.5
17.49	2162.0	2038.6
17.5	2173.0	2038.7
17.51	2168.0	2038.8
17.52	2163.0	2039.0
17.53	2142.0	2039.1
17.54	2155.0	2039.2
17.55	2162.0	2039.3
17.56	2101.0	2039.5
17.57	2071.0	2039.6
17.58	2110.0	2039.7
17.59	2142.0	2039.8
17.6	2142.0	2039.9
17.61	2113.0	2040.0
17.62	2117.0	2040.1
17.63	2154.0	2040.2
17.64	2167.0	2040.3
17.65	2166.0	2040.4
17.66	2144.0	2040.5
17.67	2149.0	2040.6
17.68	2151.0	2040.7
17.69	2135.0	2040.8
17.7	2121.0	2040.9
17.71	2099.0	2041.0
17.72	2113.0	2041.1
17.73	2105.0	2041.2
17.74	2091.0	2041.3
17.75	2112.0	2041.3
17.76	2100.0	2041.4
17.77	2106.0	2041.5
17.78	2122.0	2041.6
17.79	2121.0	2041.6
17.8	2135.0	2041.7
17.81	2125.0	2041.8
17.82	2128.0	2041.8
17.83	2147.0	2041.9
17.84	2139.0	2042.0
17.85	2128.0	2042.0
17.86	2131.0	2042.1
17.87	2122.0	2042.1
17.88	2103.0	2042.2
17.89	2114.0	2042.2
17.9	2122.0	2042.3
17.91	2121.0	2042.3
17.92	2114.0	2042.4
17.93	2120.0	2042.4
17.94	2106.0	2042.5
17.95	2085.0	2042.5
17.96	2102.0	2042.5
17.97	2094.0	2042.6
17.98	2086.0	2042.6
17.99	2082.0	2042.6
18.0	2098.0	2042.7
18.01	2115.0	2042.7
18.02	2128.0	2042.7
18.03	2132.0	2042.7
18.04	2119.0	2042.8
18.05	2118.0	2042.8
18.06	2140.0	2042.8
18.07	2150.0	2042.8
18.08	2092.0	2042.8
18.09	2072.0	2042.8
18.1	2149.0	2042.8
18.11	2173.0	2042.8
18.12	2124.0	2042.8
18.13	2139.0	2042.8
18.14	2193.0	2042.8
18.15	2174.0	2042.8
18.16	2156.0	2042.8
18.17	2161.0	2042.8
18.18	2140.0	2042.8
18.19	2110.0	2042.8
18.2	2112.0	2042.8
18.21	2106.0	2042.8
18.22	2093.0	2042.8
18.23	2085.0	2042.7
18.24	2095.0	2042.7
18.25	2113.0	2042.7
18.26	2143.0	2042.7
18.27	2141.0	2042.6
18.28	2096.0	2042.6
18.29	2077.0	2042.6
18.3	2101.0	2042.5
18.31	2131.0	2042.5
18.32	2130.0	2042.5
18.33	2144.0	2042.4
18.34	2139.0	2042.4
18.35	2115.0	2042.3
18.36	2096.0	2042.3
18.37	2111.0	2042.2
18.38	2132.0	2042.2
18.39	2089.0	2042.1
18.4	2080.0	2042.1
18.41	2109.0	2042.0
18.42	2126.0	2041.9
18.43	2102.0	2041.9
18.44	2129.0	2041.8
18.45	2138.0	2041.7
18.46	2100.0	2041.7
18.47	2087.0	2041.6
18.48	2124.0	2041.5
18.49	2168.0	2041.5
18.5	2177.0	2041.4
18.51	2151.0	2041.3
18.52	2117.0	2041.2
18.53	2110.0	2041.1
18.54	2144.0	2041.0
18.55	2161.0	2040.9
18.56	2105.0	2040.9
18.57	2075.0	2040.8
18.58	2098.0	2040.7
18.59	2126.0	2040.6
18.6	2123.0	2040.5
18.61	2121.0	2040.4
18.62	2126.0	2040.3
18.63	2119.0	2040.2
18.64	2164.0	2040.0
18.65	2164.0	2039.9
18.66	2135.0	2039.8
18.67	2139.0	2039.7
18.68	2172.0	2039.6
18.69	2176.0	2039.5
18.7	2140.0	2039.3
18.71	2117.0	2039.2
18.72	2110.0	2039.1
18.73	2073.0	2039.0
18.74	2034.0	2038.8
18.75	2054.0	2038.7
18.76	2131.0	2038.6
18.77	2178.0	2038.4
18.78	2200.0	2038.3
18.79	2162.0	2038.1
18.8	2134.0	2038.0
18.81	2108.0	2037.9
18.82	2131.0	2037.7
18.83	2148.0	2037.6
18.84	2136.0	2037.4
18.85	2161.0	2037.2
18.86	2221.0	2037.1
18.87	2244.0	2036.9
18.88	2260.0	2036.8
18.89	2273.0	2036.6
18.9	2269.0	2036.4
18.91	2278.0	2036.3
18.92	2253.0	2036.1
18.93	2228.0	2035.9
18.94	2248.0	2035.7
18.95	2277.0	2035.6
18.96	2307.0	2035.4
18.97	2299.0	2035.2
18.98	2302.0	2035.0
18.99	2329.0	2034.8
19.0	2319.0	2034.6
19.01	2347.0	2034.5
19.02	2379.0	2034.3
19.03	2347.0	2034.1
19.04	2320.0	2033.9
19.05	2312.0	2033.7
19.06	2292.0	2033.5
19.07	2286.0	2033.3
19.08	2260.0	2033.0
19.09	2221.0	2032.8
19.1	2205.0	2032.6
19.11	2231.0	2032.4
19.12	2216.0	2032.2
19.13	2212.0	2032.0
19.14	2231.0	2031.8
19.15	2235.0	2031.5
19.16	2224.0	2031.3
19.17	2209.0	2031.1
19.18	2171.0	2030.8
19.19	2144.0	2030.6
19.2	2155.0	2030.4
19.21	2158.0	2030.1
19.22	2170.0	2029.9
19.23	2129.0	2029.7
19.24	2136.0	2029.4
19.25	2145.0	2029.2
19.26	2107.0	2028.9
19.27	2091.0	2028.7
19.28	2118.0	2028.4
19.29	2116.0	2028.2
19.3	2087.0	2027.9
19.31	2099.0	2027.6
19.32	2135.0	2027.4
19.33	2122.0	2027.1
19.34	2090.0	2026.8
19.35	2050.0	2026.6
19.36	2051.0	2026.3
19.37	2102.0	2026.0
19.38	2098.0	2025.8
19.39	2105.0	2025.5
19.4	2137.0	2025.2
19.41	2066.0	2024.9
19.42	1990.0	2024.6
19.43	2039.0	2024.3
19.44	2115.0	2024.1
19.45	2136.0	2023.8
19.46	2147.0	2023.5
19.47	2139.0	2023.2
19.48	2130.0	2022.9
19.49	2089.0	2022.6
19.5	2106.0	2022.3
19.51	2120.0	2022.0
19.52	2128.0	2021.6
19.53	2067.0	2021.3
19.54	2035.0	2021.0
19.55	2066.0	2020.7
19.56	2082.0	2020.4
19.57	2076.0	2020.1
19.58	2078.0	2019.7
19.59	2098.0	2019.4
19.6	2084.0	2019.1
19.61	2057.0	2018.8
19.62	2069.0	2018.4
19.63	2075.0	2018.1
19.64	2060.0	2017.8
19.65	2055.0	2017.4
19.66	2112.0	2017.1
19.67	2086.0	2016.7
19.68	2050.0	2016.4
19.69	2040.0	2016.0
19.7	2052.0	2015.7
19.71	2080.0	2015.3
19.72	2109.0	2015.0
19.73	2154.0	2014.6
19.74	2151.0	2014.3
19.75	2091.0	2013.9
19.76	2069.0	2013.6
19.77	2079.0	2013.2
19.78	2050.0	2012.8
19.79	2015.0	2012.5
19.8	1993.0	2012.1
19.81	2032.0	2011.7
19.82	2053.0	2011.3
19.83	2066.0	2011.0
19.84	2089.0	2010.6
19.85	2084.0	2010.2
19.86	2049.0	2009.8
19.87	2054.0	2009.4
19.88	2035.0	2009.0
19.89	2022.0	2008.6
19.9	2065.0	2008.3
19.91	2079.0	2007.9
19.92	2073.0	2007.5
19.93	2088.0	2007.1
19.94	2050.0	2006.7
19.95	2021.0	2006.3
19.96	2064.0	2005.9
19.97	2072.0	2005.4
19.98	2033.0	2005.0
19.99	2028.0	2004.6
20.0	2042.0	2004.2
20.01	2018.0	2003.8
20.02	2013.0	2003.4
20.03	1993.0	2003.0
20.04	2020.0	2002.5
20.05	2046.0	2002.1
20.06	2049.0	2001.7
20.07	2055.0	2001.3
20.08	2056.0	2000.8
20.09	2055.0	2000.4
20.1	2061.0	2000.0
20.11	2014.0	1999.5
20.12	2004.0	1999.1
20.13	2034.0	1998.6
20.14	2020.0	1998.2
20.15	2038.0	1997.8
20.16	2059.0	1997.3
20.17	2001.0	1996.9
20.18	2014.0	1996.4
20.19	2068.0	1996.0
20.2	2077.0	1995.5
20.21	2064.0	1995.0
20.22	2043.0	1994.6
20.23	2017.0	1994.1
20.24	2002.0	1993.7
20.25	1996.0	1993.2
20.26	2025.0	1992.7
20.27	1984.0	1992.3
20.28	1986.0	1991.8
20.29	1984.0	1991.3
20.3	2026.0	1990.8
20.31	1997.0	1990.4
20.32	2017.0	1989.9
20.33	2032.0	1989.4
20.34	2004.0	1988.9
20.35	1965.0	1988.4
20.36	1981.0	1988.0
20.37	1994.0	1987.5
20.38	2015.0	1987.0
20.39	2001.0	1986.5
20.4	2028.0	1986.0
20.41	2064.0	1985.5
20.42	2031.0	1985.0
20.43	1992.0	1984.5
20.44	1976.0	1984.0
20.45	2024.0	1983.5
20.46	2004.0	1983.0
20.47	2007.0	1982.5
20.48	2047.0	1982.0
20.49	2041.0	1981.5
20.5	1970.0	1981.0
20.51	1938.0	1980.4
20.52	1948.0	1979.9
20.53	2012.0	1979.4
20.54	2028.0	1978.9
20.55	1988.0	1978.4
20.56	2015.0	1977.8
20.57	2005.0	1977.3
20.58	1933.0	1976.8
20.59	1952.0	1976.3
20.6	2038.0	1975.7
20.61	2023.0	1975.2
20.62	1965.0	1974.7
20.63	1936.0	1974.1
20.64	1910.0	1973.6
20.65	1935.0	1973.0
20.66	1954.0	1972.5
20.67	1984.0	1972.0
20.68	2014.0	1971.4
20.69	1971.0	1970.9
20.7	2014.0	1970.3
20.71	2064.0	1969.8
20.72	2046.0	1969.2
20.73	2003.0	1968.7
20.74	2024.0	1968.1
20.75	2008.0	1967.5
20.76	1965.0	1967.0
20.77	1956.0	1966.4
20.78	1957.0	1965.9
20.79	1949.0	1965.3
20.8	1942.0	1964.7
20.81	1940.0	1964.2
20.82	1935.0	1963.6
20.83	1952.0	1963.0
20.84	1983.0	1962.4
20.85	1989.0	1961.9
20.86	1983.0	1961.3
20.87	1970.0	1960.7
20.88	1958.0	1960.1
20.89	1939.0	1959.6
20.9	1916.0	1959.0
20.91	1956.0	1958.4
20.92	2012.0	1957.8
20.93	2001.0	1957.2
20.94	1973.0	1956.6
20.95	1925.0	1956.0
20.96	1896.0	1955.4
20.97	1919.0	1954.8
20.98	1973.0	1954.2
20.99	1965.0	1953.6
21.0	1981.0	1953.0
21.01	1932.0	1952.4
21.02	1949.0	1951.8
21.03	1972.0	1951.2
21.04	1936.0	1950.6
21.05	1879.0	1950.0
21.06	1890.0	1949.4
21.07	1879.0	1948.8
21.08	1923.0	1948.2
21.09	1926.0	1947.6
21.1	1938.0	1946.9
21.11	1981.0	1946.3
21.12	2016.0	1945.7
21.13	1970.0	1945.1
21.14	1972.0	1944.5
21.15	1963.0	1943.8
21.16	1977.0	1943.2
21.17	1937.0	1942.6
21.18	1928.0	1942.0
21.19	1962.0	1941.3
21.2	1971.0	1940.7
21.21	1886.0	1940.1
21.22	1868.0	1939.4
21.23	1930.0	1938.8
21.24	1904.0	1938.1
21.25	1878.0	1937.5
21.26	1877.0	1936.9
21.27	1895.0	1936.2
21.28	1894.0	1935.6
21.29	1933.0	1934.9
21.3	1982.0	1934.3
21.31	1955.0	1933.6
21.32	1923.0	1933.0
21.33	1963.0	1932.3
21.34	1921.0	1931.7
21.35	1907.0	1931.0
21.36	1884.0	1930.4
21.37	1917.0	1929.7
21.38	1930.0	1929.0
21.39	1918.0	1928.4
21.4	1922.0	1927.7
21.41	1933.0	1927.1
21.42	1930.0	1926.4
21.43	1933.0	1925.7
21.44	1923.0	1925.1
21.45	1912.0	1924.4
21.46	1944.0	1923.7
21.47	1928.0	1923.0
21.48	1910.0	1922.4
21.49	1906.0	1921.7
21.5	1915.0	1921.0
21.51	1953.0	1920.3
21.52	1935.0	1919.6
21.53	1974.0	1919.0
21.54	1906.0	1918.3
21.55	1801.0	1917.6
21.56	1852.0	1916.9
21.57	1903.0	1916.2
21.58	1907.0	1915.5
21.59	1926.0	1914.8
21.6	1861.0	1914.2
21.61	1856.0	1913.5
21.62	1863.0	1912.8
21.63	1889.0	1912.1
21.64	1930.0	1911.4
21.65	1938.0	1910.7
21.66	1925.0	1910.0
21.67	1938.0	1909.3
21.68	1880.0	1908.6
21.69	1879.0	1907.9
21.7	1907.0	1907.2
21.71	1879.0	1906.5
21.72	1883.0	1905.7
21.73	1873.0	1905.0
21.74	1903.0	1904.3
21.75	1854.0	1903.6
21.76	1856.0	1902.9
21.77	1870.0	1902.2
21.78	1879.0	1901.5
21.79	1823.0	1900.8
21.8	1841.0	1900.0
21.81	1865.0	1899.3
21.82	1827.0	1898.6
21.83	1870.0	1897.9
21.84	1904.0	1897.2
21.85	1866.0	1896.4
21.86	1896.0	1895.7
21.87	1904.0	1895.0
21.88	1858.0	1894.2
21.89	1895.0	1893.5
21.9	1888.0	1892.8
21.91	1830.0	1892.0
21.92	1896.0	1891.3
21.93	1917.0	1890.6
21.94	1886.0	1889.8
21.95	1849.0	1889.1
21.96	1808.0	1888.4
21.97	1785.0	1887.6
21.98	1866.0	1886.9
21.99	1883.0	1886.1
22.0	1879.0	1885.4
22.01	1946.0	1884.7
22.02	1929.0	1883.9
22.03	1884.0	1883.2
22.04	1816.0	1882.4
22.05	1855.0	1881.7
22.06	1893.0	1880.9
22.07	1866.0	1880.2
22.08	1864.0	1879.4
22.09	1903.0	1878.7
22.1	1896.0	1877.9
22.11	1885.0	1877.1
22.12	1880.0	1876.4
22.13	1855.0	1875.6
22.14	1861.0	1874.9
22.15	1860.0	1874.1
22.16	1884.0	1873.3
22.17	1840.0	1872.6
22.18	1917.0	1871.8
22.19	1844.0	1871.0
22.2	1832.0	1870.3
22.21	1893.0	1869.5
22.22	1880.0	1868.7
22.23	1815.0	1868.0
22.24	1842.0	1867.2
22.25	1845.0	1866.4
22.26	1875.0	1865.6
22.27	1863.0	1864.9
22.28	1836.0	1864.1
22.29	1856.0	1863.3
22.3	1841.0	1862.5
22.31	1797.0	1861.8
22.32	1814.0	1861.0
22.33	1830.0	1860.2
22.34	1852.0	1859.4
22.35	1836.0	1858.6
22.36	1792.0	1857.8
22.37	1853.0	1857.1
22.38	1863.0	1856.3
22.39	1869.0	1855.5
22.4	1875.0	1854.7
22.41	1802.0	1853.9
22.42	1842.0	1853.1
22.43	1870.0	1852.3
22.44	1802.0	1851.5
22.45	1799.0	1850.7
22.46	1832.0	1849.9
22.47	1814.0	1849.1
22.48	1839.0	1848.4
22.49	1846.0	1847.6
22.5	1830.0	1846.8
22.51	1829.0	1846.0
22.52	1852.0	1845.2
22.53	1878.0	1844.4
22.54	1812.0	1843.5
22.55	1778.0	1842.7
22.56	1776.0	1841.9
22.57	1804.0	1841.1
22.58	1857.0	1840.3
22.59	1790.0	1839.5
22.6	1771.0	1838.7
22.61	1822.0	1837.9
22.62	1862.0	1837.1
22.63	1823.0	1836.3
22.64	1870.0	1835.5
22.65	1835.0	1834.6
22.66	1801.0	1833.8
22.67	1810.0	1833.0
22.68	1810.0	1832.2
22.69	1804.0	1831.4
22.7	1835.0	1830.6
22.71	1797.0	1829.7
22.72	1784.0	1828.9
22.73	1819.0	1828.1
22.74	1783.0	1827.3
22.75	1753.0	1826.5
22.76	1768.0	1825.6
22.77	1802.0	1824.8
22.78	1831.0	1824.0
22.79	1786.0	1823.2
22.8	1768.0	1822.3
22.81	1747.0	1821.5
22.82	1777.0	1820.7
22.83	1742.0	1819.8
22.84	1797.0	1819.0
22.85	1803.0	1818.2
22.86	1830.0	1817.4
22.87	1789.0	1816.5
22.88	1765.0	1815.7
22.89	1796.0	1814.9
22.9	1797.0	1814.0
22.91	1802.0	1813.2
22.92	1762.0	1812.3
22.93	1802.0	1811.5
22.94	1808.0	1810.7
22.95	1777.0	1809.8
22.96	1774.0	1809.0
22.97	1764.0	1808.1
22.98	1735.0	1807.3
22.99	1749.0	1806.5
23.0	1740.0	1805.6
23.01	1745.0	1804.8
23.02	1778.0	1803.9
23.03	1785.0	1803.1
23.04	1752.0	1802.2
23.05	1792.0	1801.4
23.06	1788.0	1800.5
23.07	1722.0	1799.7
23.08	1791.0	1798.8
23.09	1823.0	1798.0
23.1	1769.0	1797.1
23.11	1800.0	1796.3
23.12	1818.0	1795.4
23.13	1766.0	1794.6
23.14	1748.0	1793.7
23.15	1723.0	1792.9
23.16	1764.0	1792.0
23.17	1818.0	1791.2
23.18	1766.0	1790.3
23.19	1726.0	1789.4
23.2	1717.0	1788.6
23.21	1758.0	1787.7
23.22	1739.0	1786.9
23.23	1725.0	1786.0
23.24	1738.0	1785.1
23.25	1740.0	1784.3
23.26	1761.0	1783.4
23.27	1723.0	1782.6
23.28	1744.0	1781.7
23.29	1738.0	1780.8
23.3	1713.0	1780.0
23.31	1728.0	1779.1
23.32	1763.0	1778.2
23.33	1741.0	1777.4
23.34	1745.0	1776.5
23.35	1760.0	1775.6
23.36	1742.0	1774.8
23.37	1768.0	1773.9
23.38	1787.0	1773.0
23.39	1783.0	1772.1
23.4	1757.0	1771.3
23.41	1745.0	1770.4
23.42	1746.0	1769.5
23.43	1737.0	1768.7
23.44	1738.0	1767.8
23.45	1707.0	1766.9
23.46	1714.0	1766.0
23.47	1727.0	1765.2
23.48	1725.0	1764.3
23.49	1730.0	1763.4
23.5	1759.0	1762.5
23.51	1720.0	1761.6
23.52	1662.0	1760.8
23.53	1661.0	1759.9
23.54	1755.0	1759.0
23.55	1766.0	1758.1
23.56	1670.0	1757.2
23.57	1662.0	1756.4
23.58	1696.0	1755.5
23.59	1699.0	1754.6
23.6	1660.0	1753.7
23.61	1676.0	1752.8
23.62	1694.0	1752.0
23.63	1687.0	1751.1
23.64	1733.0	1750.2
23.65	1691.0	1749.3
23.66	1644.0	1748.4
23.67	1714.0	1747.5
23.68	1728.0	1746.6
23.69	1708.0	1745.8
23.7	1682.0	1744.9
23.71	1707.0	1744.0
23.72	1693.0	1743.1
23.73	1663.0	1742.2
23.74	1705.0	1741.3
23.75	1710.0	1740.4
23.76	1728.0	1739.5
23.77	1720.0	1738.6
23.78	1749.0	1737.7
23.79	1718.0	1736.9
23.8	1730.0	1736.0
23.81	1732.0	1735.1
23.82	1765.0	1734.2
23.83	1681.0	1733.3
23.84	1637.0	1732.4
23.85	1648.0	1731.5
23.86	1650.0	1730.6
23.87	1663.0	1729.7
23.88	1654.0	1728.8
23.89	1663.0	1727.9
23.9	1662.0	1727.0
23.91	1681.0	1726.1
23.92	1661.0	1725.2
23.93	1709.0	1724.3
23.94	1689.0	1723.4
23.95	1684.0	1722.5
23.96	1741.0	1721.6
23.97	1738.0	1720.7
23.98	1706.0	1719.8
23.99	1698.0	1718.9
24.0	1725.0	1718.0
24.01	1698.0	1717.1
24.02	1690.0	1716.2
24.03	1679.0	1715.3
24.04	1696.0	1714.4
24.05	1698.0	1713.5
24.06	1706.0	1712.6
24.07	1726.0	1711.7
24.08	1705.0	1710.8
24.09	1681.0	1709.9
24.1	1680.0	1709.0
24.11	1673.0	1708.1
24.12	1655.0	1707.2
24.13	1691.0	1706.3
24.14	1666.0	1705.4
24.15	1720.0	1704.5
24.16	1767.0	1703.6
24.17	1755.0	1702.7
24.18	1702.0	1701.8
24.19	1655.0	1700.9
24.2	1638.0	1699.9
24.21	1673.0	1699.0
24.22	1708.0	1698.1
24.23	1723.0	1697.2
24.24	1704.0	1696.3
24.25	1656.0	1695.4
24.26	1683.0	1694.5
24.27	1667.0	1693.6
24.28	1668.0	1692.7
24.29	1681.0	1691.8
24.3	1686.0	1690.9
24.31	1699.0	1690.0
24.32	1714.0	1689.1
24.33	1730.0	1688.1
24.34	1705.0	1687.2
24.35	1664.0	1686.3
24.36	1659.0	1685.4
24.37	1675.0	1684.5
24.38	1684.0	1683.6
24.39	1673.0	1682.7
24.4	1697.0	1681.8
24.41	1679.0	1680.9
24.42	1686.0	1679.9
24.43	1673.0	1679.0
24.44	1714.0	1678.1
24.45	1726.0	1677.2
24.46	1682.0	1676.3
24.47	1684.0	1675.4
24.48	1671.0	1674.5
24.49	1663.0	1673.6
24.5	1635.0	1672.7
24.51	1623.0	1671.7
24.52	1698.0	1670.8
24.53	1693.0	1669.9
24.54	1703.0	1669.0
24.55	1662.0	1668.1
24.56	1641.0	1667.2
24.57	1642.0	1666.3
24.58	1660.0	1665.3
24.59	1652.0	1664.4
24.6	1673.0	1663.5
24.61	1681.0	1662.6
24.62	1684.0	1661.7
24.63	1701.0	1660.8
24.64	1723.0	1659.9
24.65	1726.0	1659.0
24.66	1718.0	1658.0
24.67	1690.0	1657.1
24.68	1698.0	1656.2
24.69	1710.0	1655.3
24.7	1707.0	1654.4
24.71	1716.0	1653.5
24.72	1762.0	1652.6
24.73	1706.0	1651.6
24.74	1666.0	1650.7
24.75	1692.0	1649.8
24.76	1685.0	1648.9
24.77	1665.0	1648.0
24.78	1683.0	1647.1
24.79	1699.0	1646.2
24.8	1683.0	1645.2
24.81	1653.0	1644.3
24.82	1663.0	1643.4
24.83	1681.0	1642.5
24.84	1654.0	1641.6
24.85	1658.0	1640.7
24.86	1686.0	1639.8
24.87	1727.0	1638.8
24.88	1717.0	1637.9
24.89	1688.0	1637.0
24.9	1680.0	1636.1
24.91	1713.0	1635.2
24.92	1705.0	1634.3
24.93	1703.0	1633.4
24.94	1748.0	1632.4
24.95	1691.0	1631.5
24.96	1730.0	1630.6
24.97	1744.0	1629.7
24.98	1713.0	1628.8
24.99	1734.0	1627.9
25.0	1748.0	1627.0
25.01	1747.0	1626.0
25.02	1756.0	1625.1
25.03	1756.0	1624.2
25.04	1743.0	1623.3
25.05	1767.0	1622.4
25.06	1750.0	1621.5
25.07	1744.0	1620.6
25.08	1795.0	1619.6
25.09	1832.0	1618.7
25.1	1783.0	1617.8
25.11	1791.0	1616.9
25.12	1796.0	1616.0
25.13	1770.0	1615.1
25.14	1746.0	1614.2
25.15	1748.0	1613.3
25.16	1774.0	1612.3
25.17	1798.0	1611.4
25.18	1803.0	1610.5
25.19	1777.0	1609.6
25.2	1770.0	1608.7
25.21	1785.0	1607.8
25.22	1810.0	1606.9
25.23	1828.0	1606.0
25.24	1849.0	1605.1
25.25	1828.0	1604.2
25.26	1823.0	1603.2
25.27	1832.0	1602.3
25.28	1846.0	1601.4
25.29	1867.0	1600.5
25.3	1882.0	1599.6
25.31	1876.0	1598.7
25.32	1871.0	1597.8
25.33	1855.0	1596.9
25.34	1872.0	1596.0
25.35	1913.0	1595.1
25.36	1944.0	1594.2
25.37	1960.0	1593.2
25.38	1989.0	1592.3
25.39	1978.0	1591.4
25.4	2009.0	1590.5
25.41	2085.0	1589.6
25.42	2080.0	1588.7
25.43	2040.0	1587.8
25.44	2081.0	1586.9
25.45	2153.0	1586.0
25.46	2183.0	1585.1
25.47	2178.0	1584.2
25.48	2261.0	1583.3
25.49	2345.0	1582.4
25.5	2393.0	1581.5
25.51	2451.0	1580.6
25.52	2477.0	1579.7
25.53	2503.0	1578.8
25.54	2585.0	1577.9
25.55	2686.0	1577.0
25.56	2774.0	1576.1
25.57	2822.0	1575.2
25.58	2910.0	1574.2
25.59	2992.0	1573.3
25.6	3017.0	1572.4
25.61	3062.0	1571.5
25.62	3100.0	1570.6
25.63	3133.0	1569.7
25.64	3140.0	1568.8
25.65	3081.0	1567.9
25.66	3045.0	1567.0
25.67	3038.0	1566.2
25.68	3025.0	1565.3
25.69	2969.0	1564.4
25.7	2922.0	1563.5
25.71	2872.0	1562.6
25.72	2792.0	1561.7
25.73	2681.0	1560.8
25.74	2570.0	1559.9
25.75	2506.0	1559.0
25.76	2479.0	1558.1
25.77	2423.0	1557.2
25.78	2324.0	1556.3
25.79	2255.0	1555.4
25.8	2231.0	1554.5
25.81	2207.0	1553.6
25.82	2122.0	1552.7
25.83	2063.0	1551.8
25.84	2062.0	1550.9
25.85	2068.0	1550.0
25.86	1989.0	1549.2
25.87	1890.0	1548.3
25.88	1909.0	1547.4
25.89	1925.0	1546.5
25.9	1864.0	1545.6
25.91	1855.0	1544.7
25.92	1853.0	1543.8
25.93	1822.0	1542.9
25.94	1803.0	1542.1
25.95	1757.0	1541.2
25.96	1744.0	1540.3
25.97	1760.0	1539.4
25.98	1796.0	1538.5
25.99	1855.0	1537.6
26.0	1792.0	1536.7
26.01	1727.0	1535.9
26.02	1784.0	1535.0
26.03	1775.0	1534.1
26.04	1729.0	1533.2
26.05	1732.0	1532.3
26.06	1721.0	1531.5
26.07	1720.0	1530.6
26.08	1728.0	1529.7
26.09	1721.0	1528.8
26.1	1695.0	1527.9
26.11	1654.0	1527.1
26.12	1683.0	1526.2
26.13	1734.0	1525.3
26.14	1713.0	1524.4
26.15	1684.0	1523.6
26.16	1690.0	1522.7
26.17	1667.0	1521.8
26.18	1639.0	1520.9
26.19	1632.0	1520.1
26.2	1611.0	1519.2
26.21	1618.0	1518.3
26.22	1627.0	1517.4
26.23	1609.0	1516.6
26.24	1630.0	1515.7
26.25	1633.0	1514.8
26.26	1583.0	1514.0
26.27	1582.0	1513.1
26.28	1563.0	1512.2
26.29	1553.0	1511.4
26.3	1586.0	1510.5
26.31	1614.0	1509.6
26.32	1622.0	1508.8
26.33	1611.0	1507.9
26.34	1583.0	1507.0
26.35	1550.0	1506.2
26.36	1559.0	1505.3
26.37	1575.0	1504.4
26.38	1598.0	1503.6
26.39	1617.0	1502.7
26.4	1604.0	1501.9
26.41	1578.0	1501.0
26.42	1556.0	1500.2
26.43	1554.0	1499.3
26.44	1554.0	1498.4
26.45	1539.0	1497.6
26.46	1560.0	1496.7
26.47	1554.0	1495.9
26.48	1547.0	1495.0
26.49	1568.0	1494.2
26.5	1562.0	1493.3
26.51	1566.0	1492.5
26.52	1575.0	1491.6
26.53	1587.0	1490.8
26.54	1592.0	1489.9
26.55	1566.0	1489.1
26.56	1540.0	1488.2
26.57	1504.0	1487.4
26.58	1520.0	1486.5
26.59	1551.0	1485.7
26.6	1563.0	1484.8
26.61	1567.0	1484.0
26.62	1569.0	1483.1
26.63	1571.0	1482.3
26.64	1545.0	1481.5
26.65	1536.0	1480.6
26.66	1526.0	1479.8
26.67	1535.0	1478.9
26.68	1540.0	1478.1
26.69	1526.0	1477.3
26.7	1545.0	1476.4
26.71	1570.0	1475.6
26.72	1564.0	1474.8
26.73	1556.0	1473.9
26.74	1570.0	1473.1
26.75	1538.0	1472.3
26.76	1496.0	1471.4
26.77	1487.0	1470.6
26.78	1504.0	1469.8
26.79	1532.0	1468.9
26.8	1527.0	1468.1
26.81	1506.0	1467.3
26.82	1503.0	1466.4
26.83	1506.0	1465.6
26.84	1487.0	1464.8
26.85	1489.0	1464.0
26.86	1471.0	1463.1
26.87	1448.0	1462.3
26.88	1449.0	1461.5
26.89	1465.0	1460.7
26.9	1506.0	1459.9
26.91	1527.0	1459.0
26.92	1505.0	1458.2
26.93	1485.0	1457.4
26.94	1463.0	1456.6
26.95	1456.0	1455.8
26.96	1473.0	1455.0
26.97	1474.0	1454.2
26.98	1470.0	1453.3
26.99	1465.0	1452.5
27.0	1459.0	1451.7
27.01	1464.0	1450.9
27.02	1465.0	1450.1
27.03	1471.0	1449.3
27.04	1468.0	1448.5
27.05	1437.0	1447.7
27.06	1425.0	1446.9
27.07	1462.0	1446.1
27.08	1485.0	1445.3
27.09	1476.0	1444.5
27.1	1461.0	1443.7
27.11	1455.0	1442.9
27.12	1490.0	1442.1
27.13	1478.0	1441.3
27.14	1445.0	1440.5
27.15	1459.0	1439.7
27.16	1471.0	1438.9
27.17	1479.0	1438.1
27.18	1465.0	1437.3
27.19	1424.0	1436.5
27.2	1413.0	1435.7
27.21	1450.0	1434.9
27.22	1467.0	1434.1
27.23	1477.0	1433.4
27.24	1472.0	1432.6
27.25	1444.0	1431.8
27.26	1431.0	1431.0
27.27	1427.0	1430.2
27.28	1436.0	1429.4
27.29	1460.0	1428.7
27.3	1466.0	1427.9
27.31	1428.0	1427.1
27.32	1414.0	1426.3
27.33	1428.0	1425.5
27.34	1433.0	1424.8
27.35	1449.0	1424.0
27.36	1451.0	1423.2
27.37	1415.0	1422.4
27.38	1395.0	1421.7
27.39	1422.0	1420.9
27.4	1465.0	1420.1
27.41	1486.0	1419.4
27.42	1480.0	1418.6
27.43	1451.0	1417.8
27.44	1446.0	1417.1
27.45	1442.0	1416.3
27.46	1412.0	1415.5
27.47	1404.0	1414.8
27.48	1427.0	1414.0
27.49	1435.0	1413.3
27.5	1436.0	1412.5
27.51	1437.0	1411.8
27.52	1422.0	1411.0
27.53	1425.0	1410.2
27.54	1408.0	1409.5
27.55	1400.0	1408.7
27.56	1449.0	1408.0
27.57	1457.0	1407.2
27.58	1426.0	1406.5
27.59	1440.0	1405.7
27.6	1435.0	1405.0
27.61	1422.0	1404.2
27.62	1447.0	1403.5
27.63	1477.0	1402.8
27.64	1437.0	1402.0
27.65	1411.0	1401.3
27.66	1440.0	1400.5
27.67	1443.0	1399.8
27.68	1445.0	1399.1
27.69	1454.0	1398.3
27.7	1423.0	1397.6
27.71	1389.0	1396.9
27.72	1379.0	1396.1
27.73	1371.0	1395.4
27.74	1349.0	1394.7
27.75	1362.0	1393.9
27.76	1395.0	1393.2
27.77	1391.0	1392.5
27.78	1384.0	1391.7
27.79	1420.0	1391.0
27.8	1424.0	1390.3
27.81	1392.0	1389.6
27.82	1393.0	1388.9
27.83	1373.0	1388.1
27.84	1358.0	1387.4
27.85	1390.0	1386.7
27.86	1416.0	1386.0
27.87	1420.0	1385.3
27.88	1409.0	1384.5
27.89	1386.0	1383.8
27.9	1364.0	1383.1
27.91	1376.0	1382.4
27.92	1361.0	1381.7
27.93	1373.0	1381.0
27.94	1369.0	1380.3
27.95	1364.0	1379.6
27.96	1388.0	1378.9
27.97	1365.0	1378.2
27.98	1339.0	1377.5
27.99	1368.0	1376.7
28.0	1404.0	1376.0
28.01	1391.0	1375.3
28.02	1403.0	1374.6
28.03	1387.0	1373.9
28.04	1360.0	1373.3
28.05	1374.0	1372.6
28.06	1380.0	1371.9
28.07	1355.0	1371.2
28.08	1347.0	1370.5
28.09	1386.0	1369.8
28.1	1376.0	1369.1
28.11	1383.0	1368.4
28.12	1381.0	1367.7
28.13	1373.0	1367.0
28.14	1354.0	1366.3
28.15	1348.0	1365.7
28.16	1346.0	1365.0
28.17	1354.0	1364.3
28.18	1365.0	1363.6
28.19	1361.0	1362.9
28.2	1352.0	1362.2
28.21	1343.0	1361.6
28.22	1352.0	1360.9
28.23	1352.0	1360.2
28.24	1359.0	1359.5
28.25	1376.0	1358.9
28.26	1383.0	1358.2
28.27	1369.0	1357.5
28.28	1355.0	1356.8
28.29	1337.0	1356.2
28.3	1321.0	1355.5
28.31	1340.0	1354.8
28.32	1349.0	1354.2
28.33	1317.0	1353.5
28.34	1317.0	1352.8
28.35	1352.0	1352.2
28.36	1313.0	1351.5
28.37	1333.0	1350.9
28.38	1395.0	1350.2
28.39	1404.0	1349.5
28.4	1389.0	1348.9
28.41	1358.0	1348.2
28.42	1354.0	1347.6
28.43	1369.0	1346.9
28.44	1348.0	1346.3
28.45	1329.0	1345.6
28.46	1355.0	1345.0
28.47	1359.0	1344.3
28.48	1336.0	1343.7
28.49	1340.0	1343.0
28.5	1352.0	1342.4
28.51	1343.0	1341.7
28.52	1323.0	1341.1
28.53	1321.0	1340.4
28.54	1330.0	1339.8
28.55	1316.0	1339.2
28.56	1353.0	1338.5
28.57	1351.0	1337.9
28.58	1328.0	1337.2
28.59	1315.0	1336.6
28.6	1327.0	1336.0
28.61	1349.0	1335.3
28.62	1355.0	1334.7
28.63	1358.0	1334.1
28.64	1331.0	1333.4
28.65	1321.0	1332.8
28.66	1331.0	1332.2
28.67	1322.0	1331.6
28.68	1322.0	1330.9
28.69	1344.0	1330.3
28.7	1334.0	1329.7
28.71	1311.0	1329.1
28.72	1323.0	1328.4
28.73	1326.0	1327.8
28.74	1330.0	1327.2
28.75	1340.0	1326.6
28.76	1303.0	1326.0
28.77	1314.0	1325.3
28.78	1328.0	1324.7
28.79	1317.0	1324.1
28.8	1318.0	1323.5
28.81	1348.0	1322.9
28.82	1321.0	1322.3
28.83	1315.0	1321.7
28.84	1300.0	1321.1
28.85	1282.0	1320.5
28.86	1295.0	1319.8
28.87	1304.0	1319.2
28.88	1281.0	1318.6
28.89	1291.0	1318.0
28.9	1338.0	1317.4
28.91	1319.0	1316.8
28.92	1320.0	1316.2
28.93	1333.0	1315.6
28.94	1305.0	1315.0
28.95	1283.0	1314.4
28.96	1283.0	1313.8
28.97	1323.0	1313.2
28.98	1342.0	1312.7
28.99	1364.0	1312.1
29.0	1326.0	1311.5
29.01	1296.0	1310.9
29.02	1282.0	1310.3
29.03	1273.0	1309.7
29.04	1280.0	1309.1
29.05	1299.0	1308.5
29.06	1337.0	1308.0
29.07	1360.0	1307.4
29.08	1359.0	1306.8
29.09	1338.0	1306.2
29.1	1319.0	1305.6
29.11	1283.0	1305.0
29.12	1261.0	1304.5
29.13	1255.0	1303.9
29.14	1251.0	1303.3
29.15	1306.0	1302.7
29.16	1319.0	1302.2
29.17	1292.0	1301.6
29.18	1286.0	1301.0
29.19	1293.0	1300.5
29.2	1284.0	1299.9
29.21	1281.0	1299.3
29.22	1314.0	1298.8
29.23	1359.0	1298.2
29.24	1334.0	1297.6
29.25	1287.0	1297.1
29.26	1307.0	1296.5
29.27	1289.0	1295.9
29.28	1258.0	1295.4
29.29	1264.0	1294.8
29.3	1305.0	1294.3
29.31	1345.0	1293.7
29.32	1352.0	1293.2
29.33	1311.0	1292.6
29.34	1276.0	1292.0
29.35	1266.0	1291.5
29.36	1315.0	1290.9
29.37	1313.0	1290.4
29.38	1281.0	1289.8
29.39	1308.0	1289.3
29.4	1320.0	1288.7
29.41	1284.0	1288.2
29.42	1253.0	1287.7
29.43	1282.0	1287.1
29.44	1292.0	1286.6
29.45	1293.0	1286.0
29.46	1324.0	1285.5
29.47	1333.0	1285.0
29.48	1327.0	1284.4
29.49	1311.0	1283.9
29.5	1277.0	1283.3
29.51	1273.0	1282.8
29.52	1267.0	1282.3
29.53	1288.0	1281.7
29.54	1319.0	1281.2
29.55	1303.0	1280.7
29.56	1265.0	1280.2
29.57	1266.0	1279.6
29.58	1279.0	1279.1
29.59	1259.0	1278.6
29.6	1272.0	1278.1
29.61	1327.0	1277.5
29.62	1282.0	1277.0
29.63	1255.0	1276.5
29.64	1232.0	1276.0
29.65	1224.0	1275.4
29.66	1254.0	1274.9
29.67	1309.0	1274.4
29.68	1297.0	1273.9
29.69	1273.0	1273.4
29.7	1283.0	1272.9
29.71	1301.0	1272.4
29.72	1298.0	1271.8
29.73	1297.0	1271.3
29.74	1275.0	1270.8
29.75	1276.0	1270.3
29.76	1288.0	1269.8
29.77	1277.0	1269.3
29.78	1249.0	1268.8
29.79	1274.0	1268.3
29.8	1280.0	1267.8
29.81	1319.0	1267.3
29.82	1327.0	1266.8
29.83	1283.0	1266.3
29.84	1300.0	1265.8
29.85	1314.0	1265.3
29.86	1266.0	1264.8
29.87	1240.0	1264.3
29.88	1276.0	1263.8
29.89	1261.0	1263.3
29.9	1220.0	1262.8
29.91	1235.0	1262.3
29.92	1251.0	1261.9
29.93	1239.0	1261.4
29.94	1269.0	1260.9
29.95	1274.0	1260.4
29.96	1231.0	1259.9
29.97	1225.0	1259.4
29.98	1228.0	1258.9
29.99	1255.0	1258.5
30.0	1294.0	1258.0
30.01	1294.0	1257.5
30.02	1298.0	1257.0
30.03	1276.0	1256.6
30.04	1277.0	1256.1
30.05	1255.0	1255.6
30.06	1282.0	1255.1
30.07	1314.0	1254.7
30.08	1214.0	1254.2
30.09	1215.0	1253.7
30.1	1244.0	1253.2
30.11	1247.0	1252.8
30.12	1244.0	1252.3
30.13	1279.0	1251.8
30.14	1282.0	1251.4
30.15	1274.0	1250.9
30.16	1234.0	1250.5
30.17	1248.0	1250.0
30.18	1248.0	1249.5
30.19	1247.0	1249.1
30.2	1282.0	1248.6
30.21	1293.0	1248.2
30.22	1202.0	1247.7
30.23	1274.0	1247.2
30.24	1254.0	1246.8
30.25	1291.0	1246.3
30.26	1268.0	1245.9
30.27	1234.0	1245.4
30.28	1219.0	1245.0
30.29	1211.0	1244.5
30.3	1264.0	1244.1
30.31	1244.0	1243.6
30.32	1240.0	1243.2
30.33	1257.0	1242.8
30.34	1295.0	1242.3
30.35	1277.0	1241.9
30.36	1255.0	1241.4
30.37	1253.0	1241.0
30.38	1237.0	1240.6
30.39	1261.0	1240.1
30.4	1276.0	1239.7
30.41	1220.0	1239.2
30.42	1234.0	1238.8
30.43	1255.0	1238.4
30.44	1201.0	1237.9
30.45	1232.0	1237.5
30.46	1250.0	1237.1
30.47	1238.0	1236.7
30.48	1255.0	1236.2
30.49	1260.0	1235.8
30.5	1243.0	1235.4
30.51	1233.0	1235.0
30.52	1227.0	1234.5
30.53	1261.0	1234.1
30.54	1257.0	1233.7
30.55	1248.0	1233.3
30.56	1240.0	1232.9
30.57	1198.0	1232.4
30.58	1187.0	1232.0
30.59	1232.0	1231.6
30.6	1241.0	1231.2
30.61	1254.0	1230.8
30.62	1235.0	1230.4
30.63	1247.0	1230.0
30.64	1231.0	1229.5
30.65	1245.0	1229.1
30.66	1246.0	1228.7
30.67	1259.0	1228.3
30.68	1224.0	1227.9
30.69	1228.0	1227.5
30.7	1230.0	1227.1
30.71	1244.0	1226.7
30.72	1256.0	1226.3
30.73	1215.0	1225.9
30.74	1249.0	1225.5
30.75	1277.0	1225.1
30.76	1275.0	1224.7
30.77	1277.0	1224.3
30.78	1241.0	1223.9
30.79	1246.0	1223.5
30.8	1244.0	1223.1
30.81	1246.0	1222.8
30.82	1267.0	1222.4
30.83	1241.0	1222.0
30.84	1219.0	1221.6
30.85	1231.0	1221.2
30.86	1215.0	1220.8
30.87	1231.0	1220.4
30.88	1252.0	1220.0
30.89	1229.0	1219.7
30.9	1226.0	1219.3
30.91	1241.0	1218.9
30.92	1196.0	1218.5
30.93	1204.0	1218.1
30.94	1247.0	1217.8
30.95	1262.0	1217.4
30.96	1277.0	1217.0
30.97	1274.0	1216.6
30.98	1224.0	1216.3
30.99	1224.0	1215.9
31.0	1233.0	1215.5
31.01	1238.0	1215.2
31.02	1284.0	1214.8
31.03	1261.0	1214.4
31.04	1271.0	1214.1
31.05	1292.0	1213.7
31.06	1257.0	1213.3
31.07	1220.0	1213.0
31.08	1219.0	1212.6
31.09	1261.0	1212.3
31.1	1221.0	1211.9
31.11	1229.0	1211.5
31.12	1241.0	1211.2
31.13	1237.0	1210.8
31.14	1259.0	1210.5
31.15	1257.0	1210.1
31.16	1242.0	1209.8
31.17	1248.0	1209.4
31.18	1215.0	1209.1
31.19	1177.0	1208.7
31.2	1164.0	1208.4
31.21	1199.0	1208.0
31.22	1191.0	1207.7
31.23	1222.0	1207.3
31.24	1279.0	1207.0
31.25	1243.0	1206.6
31.26	1213.0	1206.3
31.27	1210.0	1206.0
31.28	1208.0	1205.6
31.29	1228.0	1205.3
31.3	1222.0	1204.9
31.31	1205.0	1204.6
31.32	1183.0	1204.3
31.33	1212.0	1203.9
31.34	1183.0	1203.6
31.35	1241.0	1203.3
31.36	1228.0	1202.9
31.37	1232.0	1202.6
31.38	1233.0	1202.3
31.39	1240.0	1202.0
31.4	1207.0	1201.6
31.41	1200.0	1201.3
31.42	1238.0	1201.0
31.43	1253.0	1200.7
31.44	1217.0	1200.3
31.45	1207.0	1200.0
31.46	1251.0	1199.7
31.47	1254.0	1199.4
31.48	1226.0	1199.1
31.49	1247.0	1198.7
31.5	1230.0	1198.4
31.51	1217.0	1198.1
31.52	1236.0	1197.8
31.53	1211.0	1197.5
31.54	1238.0	1197.2
31.55	1227.0	1196.9
31.56	1248.0	1196.6
31.57	1204.0	1196.3
31.58	1227.0	1195.9
31.59	1239.0	1195.6
31.6	1202.0	1195.3
31.61	1200.0	1195.0
31.62	1219.0	1194.7
31.63	1243.0	1194.4
31.64	1225.0	1194.1
31.65	1203.0	1193.8
31.66	1198.0	1193.5
31.67	1176.0	1193.2
31.68	1222.0	1192.9
31.69	1237.0	1192.7
31.7	1274.0	1192.4
31.71	1239.0	1192.1
31.72	1211.0	1191.8
31.73	1200.0	1191.5
31.74	1213.0	1191.2
31.75	1241.0	1190.9
31.76	1232.0	1190.6
31.77	1243.0	1190.3
31.78	1252.0	1190.1
31.79	1195.0	1189.8
31.8	1201.0	1189.5
31.81	1212.0	1189.2
31.82	1224.0	1188.9
31.83	1252.0	1188.6
31.84	1275.0	1188.4
31.85	1275.0	1188.1
31.86	1260.0	1187.8
31.87	1221.0	1187.5
31.88	1210.0	1187.3
31.89	1250.0	1187.0
31.9	1219.0	1186.7
31.91	1214.0	1186.5
31.92	1221.0	1186.2
31.93	1207.0	1185.9
31.94	1291.0	1185.6
31.95	1305.0	1185.4
31.96	1254.0	1185.1
31.97	1200.0	1184.9
31.98	1217.0	1184.6
31.99	1205.0	1184.3
32.0	1246.0	1184.1
32.01	1227.0	1183.8
32.02	1227.0	1183.6
32.03	1256.0	1183.3
32.04	1258.0	1183.0
32.05	1226.0	1182.8
32.06	1204.0	1182.5
32.07	1219.0	1182.3
32.08	1268.0	1182.0
32.09	1302.0	1181.8
32.1	1243.0	1181.5
32.11	1210.0	1181.3
32.12	1216.0	1181.0
32.13	1242.0	1180.8
32.14	1194.0	1180.5
32.15	1231.0	1180.3
32.16	1245.0	1180.1
32.17	1196.0	1179.8
32.18	1243.0	1179.6
32.19	1241.0	1179.3
32.2	1214.0	1179.1
32.21	1211.0	1178.9
32.22	1216.0	1178.6
32.23	1207.0	1178.4
32.24	1220.0	1178.1
32.25	1229.0	1177.9
32.26	1232.0	1177.7
32.27	1247.0	1177.5
32.28	1205.0	1177.2
32.29	1180.0	1177.0
32.3	1207.0	1176.8
32.31	1203.0	1176.5
32.32	1182.0	1176.3
32.33	1198.0	1176.1
32.34	1211.0	1175.9
32.35	1213.0	1175.6
32.36	1189.0	1175.4
32.37	1196.0	1175.2
32.38	1164.0	1175.0
32.39	1180.0	1174.8
32.4	1229.0	1174.5
32.41	1238.0	1174.3
32.42	1209.0	1174.1
32.43	1219.0	1173.9
32.44	1207.0	1173.7
32.45	1210.0	1173.5
32.46	1212.0	1173.3
32.47	1195.0	1173.1
32.48	1185.0	1172.9
32.49	1181.0	1172.6
32.5	1161.0	1172.4
32.51	1164.0	1172.2
32.52	1187.0	1172.0
32.53	1211.0	1171.8
32.54	1239.0	1171.6
32.55	1249.0	1171.4
32.56	1225.0	1171.2
32.57	1242.0	1171.0
32.58	1191.0	1170.8
32.59	1212.0	1170.6
32.6	1185.0	1170.4
32.61	1190.0	1170.2
32.62	1246.0	1170.1
32.63	1227.0	1169.9
32.64	1208.0	1169.7
32.65	1178.0	1169.5
32.66	1214.0	1169.3
32.67	1215.0	1169.1
32.68	1195.0	1168.9
32.69	1186.0	1168.7
32.7	1230.0	1168.6
32.71	1244.0	1168.4
32.72	1238.0	1168.2
32.73	1235.0	1168.0
32.74	1221.0	1167.8
32.75	1182.0	1167.6
32.76	1203.0	1167.5
32.77	1192.0	1167.3
32.78	1167.0	1167.1
32.79	1176.0	1166.9
32.8	1228.0	1166.8
32.81	1236.0	1166.6
32.82	1221.0	1166.4
32.83	1200.0	1166.3
32.84	1231.0	1166.1
32.85	1237.0	1165.9
32.86	1236.0	1165.8
32.87	1230.0	1165.6
32.88	1185.0	1165.4
32.89	1163.0	1165.3
32.9	1198.0	1165.1
32.91	1221.0	1164.9
32.92	1209.0	1164.8
32.93	1170.0	1164.6
32.94	1178.0	1164.5
32.95	1202.0	1164.3
32.96	1195.0	1164.2
32.97	1190.0	1164.0
32.98	1179.0	1163.8
32.99	1155.0	1163.7
33.0	1195.0	1163.5
33.01	1177.0	1163.4
33.02	1164.0	1163.2
33.03	1171.0	1163.1
33.04	1173.0	1162.9
33.05	1190.0	1162.8
33.06	1193.0	1162.7
33.07	1169.0	1162.5
33.08	1209.0	1162.4
33.09	1233.0	1162.2
33.1	1175.0	1162.1
33.11	1156.0	1161.9
33.12	1217.0	1161.8
33.13	1221.0	1161.7
33.14	1167.0	1161.5
33.15	1143.0	1161.4
33.16	1181.0	1161.3
33.17	1179.0	1161.1
33.18	1154.0	1161.0
33.19	1196.0	1160.9
33.2	1226.0	1160.7
33.21	1180.0	1160.6
33.22	1158.0	1160.5
33.23	1177.0	1160.4
33.24	1183.0	1160.2
33.25	1178.0	1160.1
33.26	1174.0	1160.0
33.27	1202.0	1159.9
33.28	1185.0	1159.7
33.29	1168.0	1159.6
33.3	1149.0	1159.5
33.31	1156.0	1159.4
33.32	1185.0	1159.3
33.33	1222.0	1159.2
33.34	1231.0	1159.0
33.35	1240.0	1158.9
33.36	1217.0	1158.8
33.37	1191.0	1158.7
33.38	1194.0	1158.6
33.39	1194.0	1158.5
33.4	1195.0	1158.4
33.41	1207.0	1158.3
33.42	1218.0	1158.2
33.43	1218.0	1158.1
33.44	1201.0	1158.0
33.45	1224.0	1157.9
33.46	1202.0	1157.8
33.47	1203.0	1157.7
33.48	1243.0	1157.6
33.49	1207.0	1157.5
33.5	1191.0	1157.4
33.51	1181.0	1157.3
33.52	1194.0	1157.2
33.53	1199.0	1157.1
33.54	1215.0	1157.0
33.55	1220.0	1156.9
33.56	1183.0	1156.8
33.57	1170.0	1156.7
33.58	1145.0	1156.6
33.59	1159.0	1156.5
33.6	1191.0	1156.4
33.61	1203.0	1156.4
33.62	1198.0	1156.3
33.63	1204.0	1156.2
33.64	1220.0	1156.1
33.65	1214.0	1156.0
33.66	1232.0	1156.0
33.67	1224.0	1155.9
33.68	1185.0	1155.8
33.69	1213.0	1155.7
33.7	1270.0	1155.6
33.71	1226.0	1155.6
33.72	1198.0	1155.5
33.73	1206.0	1155.4
33.74	1194.0	1155.4
33.75	1188.0	1155.3
33.76	1232.0	1155.2
33.77	1242.0	1155.2
33.78	1212.0	1155.1
33.79	1180.0	1155.0
33.8	1196.0	1155.0
33.81	1220.0	1154.9
33.82	1209.0	1154.8
33.83	1212.0	1154.8
33.84	1224.0	1154.7
33.85	1180.0	1154.6
33.86	1244.0	1154.6
33.87	1234.0	1154.5
33.88	1188.0	1154.5
33.89	1227.0	1154.4
33.9	1250.0	1154.4
33.91	1245.0	1154.3
33.92	1246.0	1154.3
33.93	1252.0	1154.2
33.94	1269.0	1154.2
33.95	1265.0	1154.1
33.96	1203.0	1154.1
33.97	1177.0	1154.0
33.98	1213.0	1154.0
33.99	1199.0	1153.9
34.0	1199.0	1153.9
34.01	1221.0	1153.9
34.02	1219.0	1153.8
34.03	1228.0	1153.8
34.04	1210.0	1153.7
34.05	1182.0	1153.7
34.06	1208.0	1153.7
34.07	1260.0	1153.6
34.08	1254.0	1153.6
34.09	1196.0	1153.6
34.1	1177.0	1153.5
34.11	1198.0	1153.5
34.12	1214.0	1153.5
34.13	1213.0	1153.4
34.14	1202.0	1153.4
34.15	1200.0	1153.4
34.16	1199.0	1153.4
34.17	1210.0	1153.3
34.18	1203.0	1153.3
34.19	1178.0	1153.3
34.2	1190.0	1153.3
34.21	1179.0	1153.2
34.22	1166.0	1153.2
34.23	1146.0	1153.2
34.24	1179.0	1153.2
34.25	1223.0	1153.2
34.26	1192.0	1153.2
34.27	1184.0	1153.2
34.28	1196.0	1153.1
34.29	1213.0	1153.1
34.3	1197.0	1153.1
34.31	1219.0	1153.1
34.32	1219.0	1153.1
34.33	1188.0	1153.1
34.34	1193.0	1153.1
34.35	1203.0	1153.1
34.36	1210.0	1153.1
34.37	1198.0	1153.1
34.38	1207.0	1153.1
34.39	1175.0	1153.1
34.4	1178.0	1153.1
34.41	1199.0	1153.1
34.42	1192.0	1153.1
34.43	1163.0	1153.1
34.44	1152.0	1153.1
34.45	1168.0	1153.1
34.46	1163.0	1153.1
34.47	1192.0	1153.1
34.48	1207.0	1153.1
34.49	1188.0	1153.1
34.5	1172.0	1153.1
34.51	1160.0	1153.2
34.52	1172.0	1153.2
34.53	1173.0	1153.2
34.54	1172.0	1153.2
34.55	1159.0	1153.2
34.56	1159.0	1153.2
34.57	1194.0	1153.2
34.58	1179.0	1153.3
34.59	1164.0	1153.3
34.6	1169.0	1153.3
34.61	1160.0	1153.3
34.62	1171.0	1153.4
34.63	1161.0	1153.4
34.64	1135.0	1153.4
34.65	1146.0	1153.4
34.66	1161.0	1153.5
34.67	1139.0	1153.5
34.68	1133.0	1153.5
34.69	1167.0	1153.6
34.7	1182.0	1153.6
34.71	1193.0	1153.6
34.72	1202.0	1153.7
34.73	1208.0	1153.7
34.74	1206.0	1153.7
34.75	1192.0	1153.8
34.76	1203.0	1153.8
34.77	1204.0	1153.9
34.78	1186.0	1153.9
34.79	1161.0	1153.9
34.8	1171.0	1154.0
34.81	1171.0	1154.0
34.82	1178.0	1154.1
34.83	1212.0	1154.1
34.84	1221.0	1154.2
34.85	1209.0	1154.2
34.86	1184.0	1154.3
34.87	1171.0	1154.3
34.88	1187.0	1154.4
34.89	1200.0	1154.4
34.9	1183.0	1154.5
34.91	1176.0	1154.5
34.92	1172.0	1154.6
34.93	1185.0	1154.6
34.94	1177.0	1154.7
34.95	1188.0	1154.8
34.96	1199.0	1154.8
34.97	1189.0	1154.9
34.98	1161.0	1155.0
34.99	1187.0	1155.0
35.0	1196.0	1155.1
35.01	1174.0	1155.2
35.02	1173.0	1155.2
35.03	1187.0	1155.3
35.04	1177.0	1155.4
35.05	1151.0	1155.4
35.06	1152.0	1155.5
35.07	1179.0	1155.6
35.08	1175.0	1155.6
35.09	1187.0	1155.7
35.1	1162.0	1155.8
35.11	1130.0	1155.9
35.12	1161.0	1156.0
35.13	1179.0	1156.0
35.14	1172.0	1156.1
35.15	1159.0	1156.2
35.16	1189.0	1156.3
35.17	1205.0	1156.4
35.18	1206.0	1156.4
35.19	1165.0	1156.5
35.2	1158.0	1156.6
35.21	1148.0	1156.7
35.22	1148.0	1156.8
35.23	1192.0	1156.9
35.24	1190.0	1157.0
35.25	1160.0	1157.1
35.26	1178.0	1157.2
35.27	1195.0	1157.3
35.28	1191.0	1157.3
35.29	1224.0	1157.4
35.3	1245.0	1157.5
35.31	1223.0	1157.6
35.32	1192.0	1157.7
35.33	1214.0	1157.8
35.34	1216.0	1157.9
35.35	1201.0	1158.0
35.36	1200.0	1158.1
35.37	1182.0	1158.2
35.38	1139.0	1158.4
35.39	1151.0	1158.5
35.4	1202.0	1158.6
35.41	1253.0	1158.7
35.42	1227.0	1158.8
35.43	1184.0	1158.9
35.44	1195.0	1159.0
35.45	1206.0	1159.1
35.46	1210.0	1159.2
35.47	1208.0	1159.3
35.48	1219.0	1159.5
35.49	1201.0	1159.6
35.5	1196.0	1159.7
35.51	1232.0	1159.8
35.52	1226.0	1159.9
35.53	1198.0	1160.0
35.54	1217.0	1160.2
35.55	1236.0	1160.3
35.56	1224.0	1160.4
35.57	1214.0	1160.5
35.58	1205.0	1160.6
35.59	1208.0	1160.8
35.6	1202.0	1160.9
35.61	1204.0	1161.0
35.62	1177.0	1161.1
35.63	1188.0	1161.3
35.64	1234.0	1161.4
35.65	1213.0	1161.5
35.66	1169.0	1161.7
35.67	1172.0	1161.8
35.68	1204.0	1161.9
35.69	1215.0	1162.1
35.7	1215.0	1162.2
35.71	1225.0	1162.3
35.72	1216.0	1162.5
35.73	1187.0	1162.6
35.74	1211.0	1162.7
35.75	1232.0	1162.9
35.76	1227.0	1163.0
35.77	1248.0	1163.1
35.78	1253.0	1163.3
35.79	1251.0	1163.4
35.8	1260.0	1163.6
35.81	1276.0	1163.7
35.82	1277.0	1163.8
35.83	1264.0	1164.0
35.84	1259.0	1164.1
35.85	1276.0	1164.3
35.86	1264.0	1164.4
35.87	1240.0	1164.6
35.88	1257.0	1164.7
35.89	1274.0	1164.9
35.9	1286.0	1165.0
35.91	1293.0	1165.2
35.92	1307.0	1165.3
35.93	1294.0	1165.5
35.94	1260.0	1165.6
35.95	1242.0	1165.8
35.96	1258.0	1165.9
35.97	1260.0	1166.1
35.98	1285.0	1166.2
35.99	1312.0	1166.4
36.0	1297.0	1166.5
36.01	1293.0	1166.7
36.02	1274.0	1166.9
36.03	1265.0	1167.0
36.04	1287.0	1167.2
36.05	1279.0	1167.3
36.06	1273.0	1167.5
36.07	1287.0	1167.6
36.08	1288.0	1167.8
36.09	1296.0	1168.0
36.1	1301.0	1168.1
36.11	1290.0	1168.3
36.12	1318.0	1168.5
36.13	1331.0	1168.6
36.14	1318.0	1168.8
36.15	1344.0	1169.0
36.16	1350.0	1169.1
36.17	1324.0	1169.3
36.18	1320.0	1169.5
36.19	1340.0	1169.6
36.2	1369.0	1169.8
36.21	1388.0	1170.0
36.22	1410.0	1170.1
36.23	1444.0	1170.3
36.24	1467.0	1170.5
36.25	1468.0	1170.6
36.26	1474.0	1170.8
36.27	1502.0	1171.0
36.28	1544.0	1171.2
36.29	1579.0	1171.3
36.3	1622.0	1171.5
36.31	1672.0	1171.7
36.32	1707.0	1171.9
36.33	1736.0	1172.0
36.34	1746.0	1172.2
36.35	1728.0	1172.4
36.36	1743.0	1172.6
36.37	1779.0	1172.7
36.38	1780.0	1172.9
36.39	1757.0	1173.1
36.4	1742.0	1173.3
36.41	1759.0	1173.5
36.42	1758.0	1173.6
36.43	1704.0	1173.8
36.44	1662.0	1174.0
36.45	1660.0	1174.2
36.46	1632.0	1174.4
36.47	1584.0	1174.5
36.48	1561.0	1174.7
36.49	1545.0	1174.9
36.5	1522.0	1175.1
36.51	1501.0	1175.3
36.52	1484.0	1175.5
36.53	1463.0	1175.6
36.54	1437.0	1175.8
36.55	1431.0	1176.0
36.56	1449.0	1176.2
36.57	1434.0	1176.4
36.58	1364.0	1176.6
36.59	1360.0	1176.8
36.6	1383.0	1177.0
36.61	1365.0	1177.1
36.62	1349.0	1177.3
36.63	1317.0	1177.5
36.64	1306.0	1177.7
36.65	1314.0	1177.9
36.66	1306.0	1178.1
36.67	1294.0	1178.3
36.68	1285.0	1178.5
36.69	1274.0	1178.7
36.7	1276.0	1178.9
36.71	1276.0	1179.1
36.72	1268.0	1179.3
36.73	1292.0	1179.4
36.74	1313.0	1179.6
36.75	1296.0	1179.8
36.76	1294.0	1180.0
36.77	1294.0	1180.2
36.78	1253.0	1180.4
36.79	1232.0	1180.6
36.8	1251.0	1180.8
36.81	1244.0	1181.0
36.82	1228.0	1181.2
36.83	1220.0	1181.4
36.84	1213.0	1181.6
36.85	1239.0	1181.8
36.86	1251.0	1182.0
36.87	1245.0	1182.2
36.88	1271.0	1182.4
36.89	1284.0	1182.6
36.9	1243.0	1182.8
36.91	1211.0	1183.0
36.92	1206.0	1183.2
36.93	1238.0	1183.4
36.94	1282.0	1183.6
36.95	1264.0	1183.8
36.96	1216.0	1184.0
36.97	1194.0	1184.2
36.98	1220.0	1184.4
36.99	1252.0	1184.6
37.0	1250.0	1184.8
37.01	1247.0	1185.0
37.02	1250.0	1185.2
37.03	1248.0	1185.4
37.04	1255.0	1185.6
37.05	1217.0	1185.8
37.06	1216.0	1186.0
37.07	1243.0	1186.2
37.08	1237.0	1186.4
37.09	1216.0	1186.6
37.1	1201.0	1186.8
37.11	1224.0	1187.0
37.12	1226.0	1187.2
37.13	1197.0	1187.4
37.14	1202.0	1187.6
37.15	1221.0	1187.8
37.16	1208.0	1188.0
37.17	1177.0	1188.2
37.18	1190.0	1188.4
37.19	1210.0	1188.7
37.2	1212.0	1188.9
37.21	1212.0	1189.1
37.22	1202.0	1189.3
37.23	1215.0	1189.5
37.24	1229.0	1189.7
37.25	1252.0	1189.9
37.26	1281.0	1190.1
37.27	1245.0	1190.3
37.28	1222.0	1190.5
37.29	1236.0	1190.7
37.3	1249.0	1190.9
37.31	1247.0	1191.1
37.32	1253.0	1191.3
37.33	1238.0	1191.5
37.34	1267.0	1191.7
37.35	1308.0	1192.0
37.36	1275.0	1192.2
37.37	1243.0	1192.4
37.38	1273.0	1192.6
37.39	1305.0	1192.8
37.4	1312.0	1193.0
37.41	1297.0	1193.2
37.42	1276.0	1193.4
37.43	1277.0	1193.6
37.44	1296.0	1193.8
37.45	1318.0	1194.0
37.46	1368.0	1194.2
37.47	1404.0	1194.4
37.48	1406.0	1194.6
37.49	1418.0	1194.9
37.5	1417.0	1195.1
37.51	1443.0	1195.3
37.52	1451.0	1195.5
37.53	1484.0	1195.7
37.54	1498.0	1195.9
37.55	1523.0	1196.1
37.56	1599.0	1196.3
37.57	1638.0	1196.5
37.58	1697.0	1196.7
37.59	1765.0	1196.9
37.6	1829.0	1197.1
37.61	1908.0	1197.3
37.62	1956.0	1197.6
37.63	1956.0	1197.8
37.64	1988.0	1198.0
37.65	2067.0	1198.2
37.66	2114.0	1198.4
37.67	2153.0	1198.6
37.68	2124.0	1198.8
37.69	2129.0	1199.0
37.7	2111.0	1199.2
37.71	2105.0	1199.4
37.72	2099.0	1199.6
37.73	2073.0	1199.8
37.74	2061.0	1200.0
37.75	1985.0	1200.2
37.76	1945.0	1200.4
37.77	1918.0	1200.7
37.78	1860.0	1200.9
37.79	1773.0	1201.1
37.8	1725.0	1201.3
37.81	1724.0	1201.5
37.82	1684.0	1201.7
37.83	1642.0	1201.9
37.84	1609.0	1202.1
37.85	1586.0	1202.3
37.86	1552.0	1202.5
37.87	1504.0	1202.7
37.88	1459.0	1202.9
37.89	1437.0	1203.1
37.9	1404.0	1203.3
37.91	1345.0	1203.5
37.92	1376.0	1203.7
37.93	1404.0	1203.9
37.94	1374.0	1204.1
37.95	1352.0	1204.3
37.96	1308.0	1204.5
37.97	1312.0	1204.8
37.98	1352.0	1205.0
37.99	1327.0	1205.2
38.0	1308.0	1205.4
38.01	1310.0	1205.6
38.02	1333.0	1205.8
38.03	1321.0	1206.0
38.04	1330.0	1206.2
38.05	1339.0	1206.4
38.06	1314.0	1206.6
38.07	1308.0	1206.8
38.08	1294.0	1207.0
38.09	1322.0	1207.2
38.1	1327.0	1207.4
38.11	1356.0	1207.6
38.12	1359.0	1207.8
38.13	1310.0	1208.0
38.14	1325.0	1208.2
38.15	1353.0	1208.4
38.16	1359.0	1208.6
38.17	1373.0	1208.8
38.18	1372.0	1209.0
38.19	1387.0	1209.2
38.2	1394.0	1209.4
38.21	1408.0	1209.6
38.22	1432.0	1209.8
38.23	1466.0	1209.9
38.24	1491.0	1210.1
38.25	1509.0	1210.3
38.26	1544.0	1210.5
38.27	1524.0	1210.7
38.28	1541.0	1210.9
38.29	1562.0	1211.1
38.3	1609.0	1211.3
38.31	1656.0	1211.5
38.32	1649.0	1211.7
38.33	1636.0	1211.9
38.34	1598.0	1212.1
38.35	1594.0	1212.3
38.36	1632.0	1212.5
38.37	1677.0	1212.7
38.38	1659.0	1212.9
38.39	1626.0	1213.0
38.4	1646.0	1213.2
38.41	1653.0	1213.4
38.42	1629.0	1213.6
38.43	1568.0	1213.8
38.44	1522.0	1214.0
38.45	1492.0	1214.2
38.46	1473.0	1214.4
38.47	1451.0	1214.6
38.48	1432.0	1214.7
38.49	1397.0	1214.9
38.5	1384.0	1215.1
38.51	1394.0	1215.3
38.52	1351.0	1215.5
38.53	1309.0	1215.7
38.54	1297.0	1215.9
38.55	1332.0	1216.0
38.56	1334.0	1216.2
38.57	1294.0	1216.4
38.58	1250.0	1216.6
38.59	1258.0	1216.8
38.6	1270.0	1217.0
38.61	1250.0	1217.1
38.62	1251.0	1217.3
38.63	1257.0	1217.5
38.64	1263.0	1217.7
38.65	1281.0	1217.9
38.66	1286.0	1218.0
38.67	1260.0	1218.2
38.68	1236.0	1218.4
38.69	1194.0	1218.6
38.7	1218.0	1218.7
38.71	1234.0	1218.9
38.72	1216.0	1219.1
38.73	1226.0	1219.3
38.74	1246.0	1219.4
38.75	1261.0	1219.6
38.76	1269.0	1219.8
38.77	1257.0	1220.0
38.78	1249.0	1220.1
38.79	1247.0	1220.3
38.8	1232.0	1220.5
38.81	1227.0	1220.7
38.82	1238.0	1220.8
38.83	1245.0	1221.0
38.84	1253.0	1221.2
38.85	1235.0	1221.3
38.86	1216.0	1221.5
38.87	1221.0	1221.7
38.88	1222.0	1221.8
38.89	1217.0	1222.0
38.9	1212.0	1222.2
38.91	1214.0	1222.3
38.92	1250.0	1222.5
38.93	1239.0	1222.7
38.94	1233.0	1222.8
38.95	1224.0	1223.0
38.96	1190.0	1223.1
38.97	1206.0	1223.3
38.98	1229.0	1223.5
38.99	1261.0	1223.6
39.0	1265.0	1223.8
39.01	1235.0	1223.9
39.02	1218.0	1224.1
39.03	1224.0	1224.3
39.04	1234.0	1224.4
39.05	1261.0	1224.6
39.06	1256.0	1224.7
39.07	1270.0	1224.9
39.08	1254.0	1225.0
39.09	1236.0	1225.2
39.1	1222.0	1225.3
39.11	1229.0	1225.5
39.12	1232.0	1225.6
39.13	1218.0	1225.8
39.14	1220.0	1225.9
39.15	1220.0	1226.1
39.16	1231.0	1226.2
39.17	1259.0	1226.4
39.18	1275.0	1226.5
39.19	1230.0	1226.7
39.2	1209.0	1226.8
39.21	1223.0	1227.0
39.22	1244.0	1227.1
39.23	1223.0	1227.2
39.24	1225.0	1227.4
39.25	1266.0	1227.5
39.26	1266.0	1227.7
39.27	1265.0	1227.8
39.28	1268.0	1227.9
39.29	1272.0	1228.1
39.3	1285.0	1228.2
39.31	1300.0	1228.4
39.32	1263.0	1228.5
39.33	1283.0	1228.6
39.34	1288.0	1228.8
39.35	1273.0	1228.9
39.36	1285.0	1229.0
39.37	1271.0	1229.2
39.38	1281.0	1229.3
39.39	1235.0	1229.4
39.4	1234.0	1229.6
39.41	1277.0	1229.7
39.42	1309.0	1229.8
39.43	1283.0	1229.9
39.44	1267.0	1230.1
39.45	1278.0	1230.2
39.46	1280.0	1230.3
39.47	1271.0	1230.4
39.48	1295.0	1230.6
39.49	1306.0	1230.7
39.5	1312.0	1230.8
39.51	1340.0	1230.9
39.52	1331.0	1231.1
39.53	1294.0	1231.2
39.54	1294.0	1231.3
39.55	1295.0	1231.4
39.56	1324.0	1231.5
39.57	1339.0	1231.7
39.58	1375.0	1231.8
39.59	1400.0	1231.9
39.6	1370.0	1232.0
39.61	1403.0	1232.1
39.62	1379.0	1232.2
39.63	1375.0	1232.3
39.64	1393.0	1232.5
39.65	1465.0	1232.6
39.66	1466.0	1232.7
39.67	1499.0	1232.8
39.68	1538.0	1232.9
39.69	1494.0	1233.0
39.7	1474.0	1233.1
39.71	1480.0	1233.2
39.72	1514.0	1233.3
39.73	1528.0	1233.4
39.74	1603.0	1233.5
39.75	1643.0	1233.7
39.76	1620.0	1233.8
39.77	1617.0	1233.9
39.78	1669.0	1234.0
39.79	1749.0	1234.1
39.8	1743.0	1234.2
39.81	1798.0	1234.3
39.82	1857.0	1234.4
39.83	1872.0	1234.5
39.84	1888.0	1234.6
39.85	1926.0	1234.7
39.86	1976.0	1234.8
39.87	2024.0	1234.9
39.88	2170.0	1235.0
39.89	2264.0	1235.1
39.9	2361.0	1235.2
39.91	2410.0	1235.2
39.92	2482.0	1235.3
39.93	2590.0	1235.4
39.94	2765.0	1235.5
39.95	2909.0	1235.6
39.96	3013.0	1235.7
39.97	3128.0	1235.8
39.98	3254.0	1235.9
39.99	3342.0	1236.0
40.0	3487.0	1236.1
40.01	3625.0	1236.2
40.02	3808.0	1236.2
40.03	4175.0	1236.3
40.04	4323.0	1236.4
40.05	4387.0	1236.5
40.06	4503.0	1236.6
40.07	4610.0	1236.7
40.08	4712.0	1236.8
40.09	4769.0	1236.8
40.1	4787.0	1236.9
40.11	4824.0	1237.0
40.12	4828.0	1237.1
40.13	4831.0	1237.2
40.14	4778.0	1237.2
40.15	4627.0	1237.3
40.16	4464.0	1237.4
40.17	4439.0	1237.5
40.18	4291.0	1237.5
40.19	4171.0	1237.6
40.2	3989.0	1237.7
40.21	3845.0	1237.8
40.22	3666.0	1237.8
40.23	3474.0	1237.9
40.24	3411.0	1238.0
40.25	3234.0	1238.1
40.26	3042.0	1238.1
40.27	2882.0	1238.2
40.28	2775.0	1238.3
40.29	2672.0	1238.4
40.3	2552.0	1238.4
40.31	2442.0	1238.5
40.32	2341.0	1238.6
40.33	2244.0	1238.6
40.34	2128.0	1238.7
40.35	2078.0	1238.8
40.36	2021.0	1238.8
40.37	1960.0	1238.9
40.38	1891.0	1239.0
40.39	1869.0	1239.0
40.4	1857.0	1239.1
40.41	1864.0	1239.1
40.42	1804.0	1239.2
40.43	1784.0	1239.3
40.44	1715.0	1239.3
40.45	1681.0	1239.4
40.46	1684.0	1239.4
40.47	1642.0	1239.5
40.48	1598.0	1239.6
40.49	1555.0	1239.6
40.5	1524.0	1239.7
40.51	1556.0	1239.7
40.52	1562.0	1239.8
40.53	1568.0	1239.8
40.54	1508.0	1239.9
40.55	1496.0	1240.0
40.56	1530.0	1240.0
40.57	1480.0	1240.1
40.58	1448.0	1240.1
40.59	1439.0	1240.2
40.6	1436.0	1240.2
40.61	1454.0	1240.3
40.62	1427.0	1240.3
40.63	1426.0	1240.4
40.64	1455.0	1240.4
40.65	1423.0	1240.5
40.66	1389.0	1240.5
40.67	1392.0	1240.6
40.68	1371.0	1240.6
40.69	1365.0	1240.7
40.7	1358.0	1240.7
40.71	1400.0	1240.7
40.72	1376.0	1240.8
40.73	1364.0	1240.8
40.74	1364.0	1240.9
40.75	1330.0	1240.9
40.76	1364.0	1241.0
40.77	1387.0	1241.0
40.78	1374.0	1241.0
40.79	1356.0	1241.1
40.8	1326.0	1241.1
40.81	1327.0	1241.2
40.82	1326.0	1241.2
40.83	1355.0	1241.2
40.84	1334.0	1241.3
40.85	1376.0	1241.3
40.86	1377.0	1241.4
40.87	1361.0	1241.4
40.88	1355.0	1241.4
40.89	1362.0	1241.5
40.9	1304.0	1241.5
40.91	1325.0	1241.5
40.92	1335.0	1241.6
40.93	1346.0	1241.6
40.94	1332.0	1241.6
40.95	1306.0	1241.7
40.96	1312.0	1241.7
40.97	1298.0	1241.7
40.98	1316.0	1241.7
40.99	1302.0	1241.8
41.0	1274.0	1241.8
41.01	1243.0	1241.8
41.02	1289.0	1241.9
41.03	1300.0	1241.9
41.04	1307.0	1241.9
41.05	1310.0	1241.9
41.06	1252.0	1242.0
41.07	1324.0	1242.0
41.08	1324.0	1242.0
41.09	1331.0	1242.0
41.1	1288.0	1242.1
41.11	1337.0	1242.1
41.12	1334.0	1242.1
41.13	1303.0	1242.1
41.14	1316.0	1242.2
41.15	1345.0	1242.2
41.16	1351.0	1242.2
41.17	1352.0	1242.2
41.18	1385.0	1242.2
41.19	1431.0	1242.3
41.2	1408.0	1242.3
41.21	1406.0	1242.3
41.22	1380.0	1242.3
41.23	1392.0	1242.3
41.24	1360.0	1242.3
41.25	1408.0	1242.4
41.26	1377.0	1242.4
41.27	1371.0	1242.4
41.28	1409.0	1242.4
41.29	1376.0	1242.4
41.3	1355.0	1242.4
41.31	1389.0	1242.4
41.32	1398.0	1242.5
41.33	1418.0	1242.5
41.34	1412.0	1242.5
41.35	1406.0	1242.5
41.36	1395.0	1242.5
41.37	1452.0	1242.5
41.38	1459.0	1242.5
41.39	1448.0	1242.5
41.4	1439.0	1242.5
41.41	1463.0	1242.5
41.42	1512.0	1242.6
41.43	1491.0	1242.6
41.44	1511.0	1242.6
41.45	1529.0	1242.6
41.46	1472.0	1242.6
41.47	1516.0	1242.6
41.48	1526.0	1242.6
41.49	1537.0	1242.6
41.5	1528.0	1242.6
41.51	1564.0	1242.6
41.52	1586.0	1242.6
41.53	1696.0	1242.6
41.54	1676.0	1242.6
41.55	1640.0	1242.6
41.56	1653.0	1242.6
41.57	1652.0	1242.6
41.58	1664.0	1242.6
41.59	1712.0	1242.6
41.6	1688.0	1242.6
41.61	1664.0	1242.6
41.62	1735.0	1242.6
41.63	1725.0	1242.6
41.64	1687.0	1242.6
41.65	1648.0	1242.6
41.66	1690.0	1242.6
41.67	1674.0	1242.6
41.68	1682.0	1242.6
41.69	1695.0	1242.6
41.7	1612.0	1242.6
41.71	1551.0	1242.6
41.72	1617.0	1242.6
41.73	1555.0	1242.6
41.74	1559.0	1242.5
41.75	1561.0	1242.5
41.76	1566.0	1242.5
41.77	1472.0	1242.5
41.78	1454.0	1242.5
41.79	1464.0	1242.5
41.8	1441.0	1242.5
41.81	1408.0	1242.5
41.82	1421.0	1242.5
41.83	1447.0	1242.5
41.84	1398.0	1242.5
41.85	1364.0	1242.4
41.86	1339.0	1242.4
41.87	1344.0	1242.4
41.88	1364.0	1242.4
41.89	1400.0	1242.4
41.9	1377.0	1242.4
41.91	1395.0	1242.4
41.92	1360.0	1242.3
41.93	1327.0	1242.3
41.94	1329.0	1242.3
41.95	1342.0	1242.3
41.96	1359.0	1242.3
41.97	1352.0	1242.3
41.98	1290.0	1242.2
41.99	1348.0	1242.2
42.0	1281.0	1242.2
42.01	1288.0	1242.2
42.02	1322.0	1242.2
42.03	1300.0	1242.1
42.04	1288.0	1242.1
42.05	1249.0	1242.1
42.06	1280.0	1242.1
42.07	1328.0	1242.1
42.08	1337.0	1242.0
42.09	1300.0	1242.0
42.1	1343.0	1242.0
42.11	1324.0	1242.0
42.12	1266.0	1242.0
42.13	1279.0	1241.9
42.14	1291.0	1241.9
42.15	1316.0	1241.9
42.16	1312.0	1241.9
42.17	1273.0	1241.8
42.18	1284.0	1241.8
42.19	1309.0	1241.8
42.2	1321.0	1241.8
42.21	1268.0	1241.7
42.22	1233.0	1241.7
42.23	1252.0	1241.7
42.24	1245.0	1241.6
42.25	1245.0	1241.6
42.26	1287.0	1241.6
42.27	1283.0	1241.6
42.28	1260.0	1241.5
42.29	1283.0	1241.5
42.3	1267.0	1241.5
42.31	1266.0	1241.4
42.32	1258.0	1241.4
42.33	1279.0	1241.4
42.34	1267.0	1241.3
42.35	1250.0	1241.3
42.36	1280.0	1241.3
42.37	1262.0	1241.2
42.38	1225.0	1241.2
42.39	1254.0	1241.2
42.4	1212.0	1241.1
42.41	1283.0	1241.1
42.42	1289.0	1241.1
42.43	1326.0	1241.0
42.44	1319.0	1241.0
42.45	1247.0	1241.0
42.46	1218.0	1240.9
42.47	1239.0	1240.9
42.48	1266.0	1240.9
42.49	1283.0	1240.8
42.5	1288.0	1240.8
42.51	1316.0	1240.7
42.52	1296.0	1240.7
42.53	1262.0	1240.7
42.54	1273.0	1240.6
42.55	1278.0	1240.6
42.56	1256.0	1240.6
42.57	1284.0	1240.5
42.58	1296.0	1240.5
42.59	1267.0	1240.4
42.6	1268.0	1240.4
42.61	1281.0	1240.3
42.62	1277.0	1240.3
42.63	1272.0	1240.3
42.64	1262.0	1240.2
42.65	1230.0	1240.2
42.66	1285.0	1240.1
42.67	1316.0	1240.1
42.68	1288.0	1240.0
42.69	1280.0	1240.0
42.7	1286.0	1240.0
42.71	1279.0	1239.9
42.72	1276.0	1239.9
42.73	1329.0	1239.8
42.74	1281.0	1239.8
42.75	1270.0	1239.7
42.76	1243.0	1239.7
42.77	1260.0	1239.6
42.78	1310.0	1239.6
42.79	1268.0	1239.5
42.8	1263.0	1239.5
42.81	1278.0	1239.4
42.82	1266.0	1239.4
42.83	1278.0	1239.4
42.84	1287.0	1239.3
42.85	1298.0	1239.3
42.86	1297.0	1239.2
42.87	1288.0	1239.2
42.88	1299.0	1239.1
42.89	1281.0	1239.1
42.9	1330.0	1239.0
42.91	1282.0	1239.0
42.92	1276.0	1238.9
42.93	1286.0	1238.8
42.94	1316.0	1238.8
42.95	1283.0	1238.7
42.96	1281.0	1238.7
42.97	1327.0	1238.6
42.98	1362.0	1238.6
42.99	1309.0	1238.5
43.0	1332.0	1238.5
43.01	1309.0	1238.4
43.02	1336.0	1238.4
43.03	1339.0	1238.3
43.04	1333.0	1238.3
43.05	1320.0	1238.2
43.06	1319.0	1238.1
43.07	1347.0	1238.1
43.08	1358.0	1238.0
43.09	1334.0	1238.0
43.1	1369.0	1237.9
43.11	1382.0	1237.9
43.12	1409.0	1237.8
43.13	1405.0	1237.8
43.14	1403.0	1237.7
43.15	1392.0	1237.6
43.16	1437.0	1237.6
43.17	1508.0	1237.5
43.18	1537.0	1237.5
43.19	1497.0	1237.4
43.2	1482.0	1237.3
43.21	1486.0	1237.3
43.22	1523.0	1237.2
43.23	1515.0	1237.2
43.24	1479.0	1237.1
43.25	1462.0	1237.0
43.26	1522.0	1237.0
43.27	1573.0	1236.9
43.28	1569.0	1236.9
43.29	1567.0	1236.8
43.3	1496.0	1236.7
43.31	1487.0	1236.7
43.32	1526.0	1236.6
43.33	1518.0	1236.5
43.34	1493.0	1236.5
43.35	1498.0	1236.4
43.36	1481.0	1236.4
43.37	1477.0	1236.3
43.38	1439.0	1236.2
43.39	1463.0	1236.2
43.4	1452.0	1236.1
43.41	1461.0	1236.0
43.42	1416.0	1236.0
43.43	1436.0	1235.9
43.44	1413.0	1235.8
43.45	1397.0	1235.8
43.46	1380.0	1235.7
43.47	1358.0	1235.6
43.48	1347.0	1235.6
43.49	1328.0	1235.5
43.5	1332.0	1235.4
43.51	1356.0	1235.4
43.52	1341.0	1235.3
43.53	1312.0	1235.2
43.54	1325.0	1235.2
43.55	1314.0	1235.1
43.56	1362.0	1235.0
43.57	1350.0	1235.0
43.58	1309.0	1234.9
43.59	1291.0	1234.8
43.6	1249.0	1234.8
43.61	1279.0	1234.7
43.62	1302.0	1234.6
43.63	1232.0	1234.6
43.64	1217.0	1234.5
43.65	1261.0	1234.4
43.66	1333.0	1234.3
43.67	1289.0	1234.3
43.68	1265.0	1234.2
43.69	1296.0	1234.1
43.7	1280.0	1234.1
43.71	1260.0	1234.0
43.72	1272.0	1233.9
43.73	1301.0	1233.8
43.74	1309.0	1233.8
43.75	1304.0	1233.7
43.76	1287.0	1233.6
43.77	1265.0	1233.6
43.78	1265.0	1233.5
43.79	1282.0	1233.4
43.8	1301.0	1233.3
43.81	1276.0	1233.3
43.82	1273.0	1233.2
43.83	1278.0	1233.1
43.84	1236.0	1233.0
43.85	1238.0	1233.0
43.86	1248.0	1232.9
43.87	1264.0	1232.8
43.88	1265.0	1232.7
43.89	1263.0	1232.7
43.9	1285.0	1232.6
43.91	1287.0	1232.5
43.92	1284.0	1232.4
43.93	1286.0	1232.4
43.94	1269.0	1232.3
43.95	1235.0	1232.2
43.96	1240.0	1232.1
43.97	1228.0	1232.1
43.98	1233.0	1232.0
43.99	1213.0	1231.9
44.0	1221.0	1231.8
44.01	1227.0	1231.8
44.02	1214.0	1231.7
44.03	1235.0	1231.6
44.04	1255.0	1231.5
44.05	1290.0	1231.4
44.06	1243.0	1231.4
44.07	1252.0	1231.3
44.08	1242.0	1231.2
44.09	1267.0	1231.1
44.1	1229.0	1231.0
44.11	1218.0	1231.0
44.12	1243.0	1230.9
44.13	1245.0	1230.8
44.14	1211.0	1230.7
44.15	1238.0	1230.7
44.16	1244.0	1230.6
44.17	1233.0	1230.5
44.18	1225.0	1230.4
44.19	1253.0	1230.3
44.2	1241.0	1230.3
44.21	1293.0	1230.2
44.22	1301.0	1230.1
44.23	1288.0	1230.0
44.24	1268.0	1229.9
44.25	1284.0	1229.9
44.26	1281.0	1229.8
44.27	1253.0	1229.7
44.28	1222.0	1229.6
44.29	1254.0	1229.5
44.3	1278.0	1229.4
44.31	1270.0	1229.4
44.32	1265.0	1229.3
44.33	1239.0	1229.2
44.34	1228.0	1229.1
44.35	1249.0	1229.0
44.36	1229.0	1229.0
44.37	1243.0	1228.9
44.38	1232.0	1228.8
44.39	1221.0	1228.7
44.4	1237.0	1228.6
44.41	1253.0	1228.5
44.42	1295.0	1228.5
44.43	1311.0	1228.4
44.44	1286.0	1228.3
44.45	1266.0	1228.2
44.46	1254.0	1228.1
44.47	1253.0	1228.0
44.48	1260.0	1228.0
44.49	1257.0	1227.9
44.5	1263.0	1227.8
44.51	1284.0	1227.7
44.52	1262.0	1227.6
44.53	1280.0	1227.5
44.54	1277.0	1227.4
44.55	1291.0	1227.4
44.56	1297.0	1227.3
44.57	1248.0	1227.2
44.58	1251.0	1227.1
44.59	1257.0	1227.0
44.6	1245.0	1226.9
44.61	1231.0	1226.9
44.62	1252.0	1226.8
44.63	1219.0	1226.7
44.64	1220.0	1226.6
44.65	1232.0	1226.5
44.66	1273.0	1226.4
44.67	1264.0	1226.3
44.68	1241.0	1226.3
44.69	1281.0	1226.2
44.7	1277.0	1226.1
44.71	1265.0	1226.0
44.72	1237.0	1225.9
44.73	1256.0	1225.8
44.74	1286.0	1225.7
44.75	1286.0	1225.7
44.76	1301.0	1225.6
44.77	1286.0	1225.5
44.78	1246.0	1225.4
44.79	1265.0	1225.3
44.8	1291.0	1225.2
44.81	1298.0	1225.1
44.82	1313.0	1225.0
44.83	1288.0	1225.0
44.84	1195.0	1224.9
44.85	1197.0	1224.8
44.86	1240.0	1224.7
44.87	1234.0	1224.6
44.88	1219.0	1224.5
44.89	1220.0	1224.4
44.9	1265.0	1224.3
44.91	1263.0	1224.3
44.92	1275.0	1224.2
44.93	1293.0	1224.1
44.94	1306.0	1224.0
44.95	1284.0	1223.9
44.96	1286.0	1223.8
44.97	1274.0	1223.7
44.98	1281.0	1223.6
44.99	1292.0	1223.6
45.0	1273.0	1223.5
45.01	1234.0	1223.4
45.02	1252.0	1223.3
45.03	1282.0	1223.2
45.04	1293.0	1223.1
45.05	1277.0	1223.0
45.06	1260.0	1222.9
45.07	1278.0	1222.9
45.08	1290.0	1222.8
45.09	1308.0	1222.7
45.1	1296.0	1222.6
45.11	1277.0	1222.5
45.12	1274.0	1222.4
45.13	1318.0	1222.3
45.14	1318.0	1222.2
45.15	1288.0	1222.1
45.16	1302.0	1222.1
45.17	1316.0	1222.0
45.18	1317.0	1221.9
45.19	1334.0	1221.8
45.2	1319.0	1221.7
45.21	1292.0	1221.6
45.22	1297.0	1221.5
45.23	1332.0	1221.4
45.24	1352.0	1221.3
45.25	1352.0	1221.3
45.26	1290.0	1221.2
45.27	1287.0	1221.1
45.28	1284.0	1221.0
45.29	1294.0	1220.9
45.3	1346.0	1220.8
45.31	1345.0	1220.7
45.32	1335.0	1220.6
45.33	1328.0	1220.5
45.34	1351.0	1220.5
45.35	1349.0	1220.4
45.36	1392.0	1220.3
45.37	1377.0	1220.2
45.38	1378.0	1220.1
45.39	1409.0	1220.0
45.4	1418.0	1219.9
45.41	1425.0	1219.8
45.42	1435.0	1219.7
45.43	1432.0	1219.7
45.44	1433.0	1219.6
45.45	1436.0	1219.5
45.46	1463.0	1219.4
45.47	1451.0	1219.3
45.48	1467.0	1219.2
45.49	1464.0	1219.1
45.5	1512.0	1219.0
45.51	1480.0	1218.9
45.52	1495.0	1218.8
45.53	1519.0	1218.8
45.54	1540.0	1218.7
45.55	1553.0	1218.6
45.56	1567.0	1218.5
45.57	1586.0	1218.4
45.58	1607.0	1218.3
45.59	1656.0	1218.2
45.6	1674.0	1218.1
45.61	1705.0	1218.0
45.62	1732.0	1218.0
45.63	1747.0	1217.9
45.64	1807.0	1217.8
45.65	1889.0	1217.7
45.66	1901.0	1217.6
45.67	1916.0	1217.5
45.68	1987.0	1217.4
45.69	2078.0	1217.3
45.7	2152.0	1217.2
45.71	2223.0	1217.2
45.72	2292.0	1217.1
45.73	2387.0	1217.0
45.74	2502.0	1216.9
45.75	2626.0	1216.8
45.76	2741.0	1216.7
45.77	2872.0	1216.6
45.78	3048.0	1216.5
45.79	3221.0	1216.5
45.8	3445.0	1216.4
45.81	3589.0	1216.3
45.82	3739.0	1216.2
45.83	3981.0	1216.1
45.84	4142.0	1216.0
45.85	4265.0	1215.9
45.86	4346.0	1215.8
45.87	4477.0	1215.7
45.88	4568.0	1215.7
45.89	4542.0	1215.6
45.9	4582.0	1215.5
45.91	4675.0	1215.4
45.92	4613.0	1215.3
45.93	4544.0	1215.2
45.94	4409.0	1215.1
45.95	4320.0	1215.0
45.96	4212.0	1215.0
45.97	4081.0	1214.9
45.98	4055.0	1214.8
45.99	3925.0	1214.7
46.0	3772.0	1214.6
46.01	3659.0	1214.5
46.02	3509.0	1214.4
46.03	3363.0	1214.3
46.04	3214.0	1214.3
46.05	3061.0	1214.2
46.06	2918.0	1214.1
46.07	2814.0	1214.0
46.08	2682.0	1213.9
46.09	2524.0	1213.8
46.1	2422.0	1213.7
46.11	2316.0	1213.7
46.12	2184.0	1213.6
46.13	2155.0	1213.5
46.14	2114.0	1213.4
46.15	2015.0	1213.3
46.16	1924.0	1213.2
46.17	1860.0	1213.1
46.18	1812.0	1213.1
46.19	1794.0	1213.0
46.2	1769.0	1212.9
46.21	1750.0	1212.8
46.22	1687.0	1212.7
46.23	1619.0	1212.6
46.24	1558.0	1212.5
46.25	1529.0	1212.5
46.26	1521.0	1212.4
46.27	1519.0	1212.3
46.28	1512.0	1212.2
46.29	1493.0	1212.1
46.3	1480.0	1212.0
46.31	1484.0	1212.0
46.32	1473.0	1211.9
46.33	1447.0	1211.8
46.34	1420.0	1211.7
46.35	1426.0	1211.6
46.36	1413.0	1211.5
46.37	1422.0	1211.4
46.38	1404.0	1211.4
46.39	1360.0	1211.3
46.4	1335.0	1211.2
46.41	1329.0	1211.1
46.42	1340.0	1211.0
46.43	1369.0	1210.9
46.44	1385.0	1210.9
46.45	1367.0	1210.8
46.46	1347.0	1210.7
46.47	1325.0	1210.6
46.48	1323.0	1210.5
46.49	1325.0	1210.5
46.5	1324.0	1210.4
46.51	1340.0	1210.3
46.52	1326.0	1210.2
46.53	1305.0	1210.1
46.54	1281.0	1210.0
46.55	1283.0	1210.0
46.56	1323.0	1209.9
46.57	1298.0	1209.8
46.58	1285.0	1209.7
46.59	1302.0	1209.6
46.6	1301.0	1209.6
46.61	1275.0	1209.5
46.62	1266.0	1209.4
46.63	1260.0	1209.3
46.64	1259.0	1209.2
46.65	1255.0	1209.2
46.66	1285.0	1209.1
46.67	1281.0	1209.0
46.68	1242.0	1208.9
46.69	1218.0	1208.8
46.7	1234.0	1208.8
46.71	1267.0	1208.7
46.72	1260.0	1208.6
46.73	1235.0	1208.5
46.74	1223.0	1208.4
46.75	1224.0	1208.4
46.76	1239.0	1208.3
46.77	1246.0	1208.2
46.78	1228.0	1208.1
46.79	1233.0	1208.1
46.8	1256.0	1208.0
46.81	1245.0	1207.9
46.82	1220.0	1207.8
46.83	1242.0	1207.7
46.84	1270.0	1207.7
46.85	1257.0	1207.6
46.86	1242.0	1207.5
46.87	1231.0	1207.4
46.88	1238.0	1207.4
46.89	1237.0	1207.3
46.9	1220.0	1207.2
46.91	1231.0	1207.1
46.92	1226.0	1207.1
46.93	1212.0	1207.0
46.94	1220.0	1206.9
46.95	1210.0	1206.8
46.96	1239.0	1206.8
46.97	1278.0	1206.7
46.98	1262.0	1206.6
46.99	1201.0	1206.5
47.0	1201.0	1206.5
47.01	1213.0	1206.4
47.02	1237.0	1206.3
47.03	1254.0	1206.2
47.04	1222.0	1206.2
47.05	1226.0	1206.1
47.06	1223.0	1206.0
47.07	1200.0	1205.9
47.08	1194.0	1205.9
47.09	1232.0	1205.8
47.1	1220.0	1205.7
47.11	1202.0	1205.7
47.12	1235.0	1205.6
47.13	1234.0	1205.5
47.14	1228.0	1205.4
47.15	1228.0	1205.4
47.16	1245.0	1205.3
47.17	1268.0	1205.2
47.18	1260.0	1205.2
47.19	1254.0	1205.1
47.2	1257.0	1205.0
47.21	1255.0	1205.0
47.22	1258.0	1204.9
47.23	1230.0	1204.8
47.24	1209.0	1204.7
47.25	1215.0	1204.7
47.26	1199.0	1204.6
47.27	1234.0	1204.5
47.28	1239.0	1204.5
47.29	1240.0	1204.4
47.3	1250.0	1204.3
47.31	1250.0	1204.3
47.32	1244.0	1204.2
47.33	1236.0	1204.1
47.34	1248.0	1204.1
47.35	1228.0	1204.0
47.36	1241.0	1203.9
47.37	1247.0	1203.9
47.38	1248.0	1203.8
47.39	1274.0	1203.7
47.4	1269.0	1203.7
47.41	1266.0	1203.6
47.42	1248.0	1203.5
47.43	1231.0	1203.5
47.44	1228.0	1203.4
47.45	1232.0	1203.3
47.46	1265.0	1203.3
47.47	1273.0	1203.2
47.48	1235.0	1203.1
47.49	1217.0	1203.1
47.5	1247.0	1203.0
47.51	1271.0	1203.0
47.52	1250.0	1202.9
47.53	1242.0	1202.8
47.54	1250.0	1202.8
47.55	1249.0	1202.7
47.56	1237.0	1202.6
47.57	1241.0	1202.6
47.58	1222.0	1202.5
47.59	1231.0	1202.5
47.6	1257.0	1202.4
47.61	1257.0	1202.3
47.62	1252.0	1202.3
47.63	1203.0	1202.2
47.64	1214.0	1202.1
47.65	1262.0	1202.1
47.66	1250.0	1202.0
47.67	1225.0	1202.0
47.68	1236.0	1201.9
47.69	1252.0	1201.8
47.7	1249.0	1201.8
47.71	1245.0	1201.7
47.72	1251.0	1201.7
47.73	1255.0	1201.6
47.74	1252.0	1201.5
47.75	1238.0	1201.5
47.76	1232.0	1201.4
47.77	1230.0	1201.4
47.78	1231.0	1201.3
47.79	1231.0	1201.3
47.8	1220.0	1201.2
47.81	1207.0	1201.1
47.82	1207.0	1201.1
47.83	1210.0	1201.0
47.84	1227.0	1201.0
47.85	1254.0	1200.9
47.86	1244.0	1200.9
47.87	1226.0	1200.8
47.88	1254.0	1200.7
47.89	1256.0	1200.7
47.9	1223.0	1200.6
47.91	1236.0	1200.6
47.92	1265.0	1200.5
47.93	1274.0	1200.5
47.94	1267.0	1200.4
47.95	1254.0	1200.4
47.96	1255.0	1200.3
47.97	1255.0	1200.3
47.98	1283.0	1200.2
47.99	1329.0	1200.1
48.0	1308.0	1200.1
48.01	1296.0	1200.0
48.02	1324.0	1200.0
48.03	1320.0	1199.9
48.04	1341.0	1199.9
48.05	1340.0	1199.8
48.06	1313.0	1199.8
48.07	1349.0	1199.7
48.08	1352.0	1199.7
48.09	1388.0	1199.6
48.1	1417.0	1199.6
48.11	1398.0	1199.5
48.12	1404.0	1199.5
48.13	1443.0	1199.4
48.14	1452.0	1199.4
48.15	1433.0	1199.3
48.16	1432.0	1199.3
48.17	1460.0	1199.2
48.18	1415.0	1199.2
48.19	1367.0	1199.1
48.2	1398.0	1199.1
48.21	1406.0	1199.0
48.22	1398.0	1199.0
48.23	1410.0	1198.9
48.24	1430.0	1198.9
48.25	1410.0	1198.8
48.26	1374.0	1198.8
48.27	1379.0	1198.7
48.28	1383.0	1198.7
48.29	1375.0	1198.6
48.3	1402.0	1198.6
48.31	1428.0	1198.6
48.32	1396.0	1198.5
48.33	1366.0	1198.5
48.34	1372.0	1198.4
48.35	1349.0	1198.4
48.36	1310.0	1198.3
48.37	1310.0	1198.3
48.38	1316.0	1198.2
48.39	1304.0	1198.2
48.4	1300.0	1198.1
48.41	1296.0	1198.1
48.42	1276.0	1198.1
48.43	1266.0	1198.0
48.44	1268.0	1198.0
48.45	1286.0	1197.9
48.46	1273.0	1197.9
48.47	1261.0	1197.8
48.48	1272.0	1197.8
48.49	1265.0	1197.8
48.5	1226.0	1197.7
48.51	1226.0	1197.7
48.52	1238.0	1197.6
48.53	1232.0	1197.6
48.54	1243.0	1197.5
48.55	1252.0	1197.5
48.56	1250.0	1197.5
48.57	1273.0	1197.4
48.58	1283.0	1197.4
48.59	1245.0	1197.3
48.6	1229.0	1197.3
48.61	1252.0	1197.3
48.62	1237.0	1197.2
48.63	1213.0	1197.2
48.64	1222.0	1197.1
48.65	1231.0	1197.1
48.66	1199.0	1197.1
48.67	1202.0	1197.0
48.68	1187.0	1197.0
48.69	1189.0	1197.0
48.7	1244.0	1196.9
48.71	1248.0	1196.9
48.72	1210.0	1196.8
48.73	1223.0	1196.8
48.74	1236.0	1196.8
48.75	1229.0	1196.7
48.76	1234.0	1196.7
48.77	1229.0	1196.7
48.78	1209.0	1196.6
48.79	1211.0	1196.6
48.8	1226.0	1196.6
48.81	1228.0	1196.5
48.82	1210.0	1196.5
48.83	1223.0	1196.5
48.84	1231.0	1196.4
48.85	1217.0	1196.4
48.86	1194.0	1196.3
48.87	1184.0	1196.3
48.88	1203.0	1196.3
48.89	1208.0	1196.2
48.9	1223.0	1196.2
48.91	1230.0	1196.2
48.92	1207.0	1196.2
48.93	1213.0	1196.1
48.94	1217.0	1196.1
48.95	1206.0	1196.1
48.96	1221.0	1196.0
48.97	1216.0	1196.0
48.98	1222.0	1196.0
48.99	1232.0	1195.9
49.0	1227.0	1195.9
49.01	1234.0	1195.9
49.02	1229.0	1195.8
49.03	1214.0	1195.8
49.04	1216.0	1195.8
49.05	1232.0	1195.7
49.06	1240.0	1195.7
49.07	1225.0	1195.7
49.08	1221.0	1195.7
49.09	1221.0	1195.6
49.1	1198.0	1195.6
49.11	1179.0	1195.6
49.12	1174.0	1195.5
49.13	1195.0	1195.5
49.14	1206.0	1195.5
49.15	1211.0	1195.5
49.16	1234.0	1195.4
49.17	1237.0	1195.4
49.18	1222.0	1195.4
49.19	1223.0	1195.4
49.2	1225.0	1195.3
49.21	1230.0	1195.3
49.22	1212.0	1195.3
49.23	1191.0	1195.3
49.24	1216.0	1195.2
49.25	1254.0	1195.2
49.26	1260.0	1195.2
49.27	1245.0	1195.2
49.28	1207.0	1195.1
49.29	1216.0	1195.1
49.3	1274.0	1195.1
49.31	1264.0	1195.1
49.32	1219.0	1195.0
49.33	1210.0	1195.0
49.34	1225.0	1195.0
49.35	1255.0	1195.0
49.36	1240.0	1195.0
49.37	1236.0	1194.9
49.38	1240.0	1194.9
49.39	1215.0	1194.9
49.4	1231.0	1194.9
49.41	1237.0	1194.8
49.42	1211.0	1194.8
49.43	1195.0	1194.8
49.44	1184.0	1194.8
49.45	1194.0	1194.8
49.46	1221.0	1194.7
49.47	1218.0	1194.7
49.48	1225.0	1194.7
49.49	1228.0	1194.7
49.5	1221.0	1194.7
49.51	1234.0	1194.6
49.52	1240.0	1194.6
49.53	1238.0	1194.6
49.54	1250.0	1194.6
49.55	1238.0	1194.6
49.56	1226.0	1194.6
49.57	1209.0	1194.5
49.58	1212.0	1194.5
49.59	1220.0	1194.5
49.6	1203.0	1194.5
49.61	1228.0	1194.5
49.62	1248.0	1194.5
49.63	1251.0	1194.4
49.64	1228.0	1194.4
49.65	1187.0	1194.4
49.66	1190.0	1194.4
49.67	1198.0	1194.4
49.68	1220.0	1194.4
49.69	1230.0	1194.4
49.7	1204.0	1194.3
49.71	1179.0	1194.3
49.72	1190.0	1194.3
49.73	1200.0	1194.3
49.74	1187.0	1194.3
49.75	1190.0	1194.3
49.76	1208.0	1194.3
49.77	1230.0	1194.3
49.78	1231.0	1194.2
49.79	1235.0	1194.2
49.8	1247.0	1194.2
49.81	1237.0	1194.2
49.82	1212.0	1194.2
49.83	1189.0	1194.2
49.84	1194.0	1194.2
49.85	1202.0	1194.2
49.86	1200.0	1194.2
49.87	1198.0	1194.1
49.88	1190.0	1194.1
49.89	1204.0	1194.1
49.9	1234.0	1194.1
49.91	1236.0	1194.1
49.92	1226.0	1194.1
49.93	1226.0	1194.1
49.94	1209.0	1194.1
49.95	1219.0	1194.1
49.96	1243.0	1194.1
49.97	1233.0	1194.1
49.98	1208.0	1194.1
49.99	1189.0	1194.0
50.0	1203.0	1194.0
50.01	1242.0	1194.0
50.02	1255.0	1194.0
50.03	1267.0	1194.0
50.04	1253.0	1194.0
50.05	1240.0	1194.0
50.06	1237.0	1194.0
50.07	1234.0	1194.0
50.08	1250.0	1194.0
50.09	1250.0	1194.0
50.1	1251.0	1194.0
50.11	1259.0	1194.0
50.12	1246.0	1194.0
50.13	1229.0	1194.0
50.14	1223.0	1194.0
50.15	1217.0	1194.0
50.16	1207.0	1194.0
50.17	1200.0	1194.0
50.18	1204.0	1194.0
50.19	1231.0	1194.0
50.2	1238.0	1194.0
50.21	1230.0	1194.0
50.22	1226.0	1194.0
50.23	1217.0	1194.0
50.24	1230.0	1194.0
50.25	1248.0	1194.0
50.26	1247.0	1194.0
50.27	1244.0	1194.0
50.28	1228.0	1194.0
50.29	1233.0	1194.0
50.3	1264.0	1194.0
50.31	1273.0	1194.0
50.32	1256.0	1194.0
50.33	1220.0	1194.0
50.34	1204.0	1194.0
50.35	1219.0	1194.0
50.36	1225.0	1194.0
50.37	1205.0	1194.0
50.38	1197.0	1194.0
50.39	1213.0	1194.0
50.4	1230.0	1194.0
50.41	1252.0	1194.0
50.42	1263.0	1194.0
50.43	1262.0	1194.0
50.44	1264.0	1194.0
50.45	1243.0	1194.0
50.46	1229.0	1194.0
50.47	1230.0	1194.0
50.48	1223.0	1194.0
50.49	1204.0	1194.0
50.5	1200.0	1194.0
50.51	1224.0	1194.0
50.52	1224.0	1194.1
50.53	1181.0	1194.1
50.54	1176.0	1194.1
50.55	1201.0	1194.1
50.56	1198.0	1194.1
50.57	1220.0	1194.1
50.58	1258.0	1194.1
50.59	1256.0	1194.1
50.6	1217.0	1194.1
50.61	1226.0	1194.1
50.62	1231.0	1194.1
50.63	1193.0	1194.1
50.64	1208.0	1194.2
50.65	1239.0	1194.2
50.66	1237.0	1194.2
50.67	1237.0	1194.2
50.68	1255.0	1194.2
50.69	1243.0	1194.2
50.7	1233.0	1194.2
50.71	1249.0	1194.2
50.72	1247.0	1194.2
50.73	1230.0	1194.3
50.74	1239.0	1194.3
50.75	1261.0	1194.3
50.76	1264.0	1194.3
50.77	1269.0	1194.3
50.78	1274.0	1194.3
50.79	1251.0	1194.3
50.8	1225.0	1194.3
50.81	1203.0	1194.4
50.82	1216.0	1194.4
50.83	1235.0	1194.4
50.84	1225.0	1194.4
50.85	1246.0	1194.4
50.86	1257.0	1194.4
50.87	1283.0	1194.5
50.88	1289.0	1194.5
50.89	1268.0	1194.5
50.9	1272.0	1194.5
50.91	1241.0	1194.5
50.92	1216.0	1194.5
50.93	1232.0	1194.6
50.94	1229.0	1194.6
50.95	1237.0	1194.6
50.96	1263.0	1194.6
50.97	1248.0	1194.6
50.98	1229.0	1194.6
50.99	1230.0	1194.7
51.0	1248.0	1194.7
51.01	1231.0	1194.7
51.02	1213.0	1194.7
51.03	1237.0	1194.7
51.04	1249.0	1194.8
51.05	1248.0	1194.8
51.06	1249.0	1194.8
51.07	1241.0	1194.8
51.08	1236.0	1194.8
51.09	1245.0	1194.9
51.1	1238.0	1194.9
51.11	1236.0	1194.9
51.12	1232.0	1194.9
51.13	1231.0	1195.0
51.14	1261.0	1195.0
51.15	1274.0	1195.0
51.16	1236.0	1195.0
51.17	1224.0	1195.1
51.18	1242.0	1195.1
51.19	1249.0	1195.1
51.2	1254.0	1195.1
51.21	1247.0	1195.2
51.22	1222.0	1195.2
51.23	1196.0	1195.2
51.24	1194.0	1195.2
51.25	1223.0	1195.3
51.26	1246.0	1195.3
51.27	1237.0	1195.3
51.28	1218.0	1195.3
51.29	1213.0	1195.4
51.3	1199.0	1195.4
51.31	1199.0	1195.4
51.32	1234.0	1195.4
51.33	1244.0	1195.5
51.34	1254.0	1195.5
51.35	1270.0	1195.5
51.36	1250.0	1195.6
51.37	1233.0	1195.6
51.38	1246.0	1195.6
51.39	1238.0	1195.6
51.4	1229.0	1195.7
51.41	1238.0	1195.7
51.42	1231.0	1195.7
51.43	1227.0	1195.8
51.44	1234.0	1195.8
51.45	1251.0	1195.8
51.46	1237.0	1195.9
51.47	1199.0	1195.9
51.48	1198.0	1195.9
51.49	1225.0	1196.0
51.5	1238.0	1196.0
51.51	1223.0	1196.0
51.52	1220.0	1196.1
51.53	1235.0	1196.1
51.54	1236.0	1196.1
51.55	1226.0	1196.2
51.56	1217.0	1196.2
51.57	1226.0	1196.2
51.58	1247.0	1196.3
51.59	1260.0	1196.3
51.6	1249.0	1196.3
51.61	1223.0	1196.4
51.62	1222.0	1196.4
51.63	1230.0	1196.4
51.64	1265.0	1196.5
51.65	1301.0	1196.5
51.66	1274.0	1196.6
51.67	1228.0	1196.6
51.68	1198.0	1196.6
51.69	1179.0	1196.7
51.7	1187.0	1196.7
51.71	1231.0	1196.8
51.72	1272.0	1196.8
51.73	1256.0	1196.8
51.74	1205.0	1196.9
51.75	1214.0	1196.9
51.76	1263.0	1196.9
51.77	1279.0	1197.0
51.78	1264.0	1197.0
51.79	1259.0	1197.1
51.8	1269.0	1197.1
51.81	1263.0	1197.2
51.82	1245.0	1197.2
51.83	1237.0	1197.2
51.84	1241.0	1197.3
51.85	1228.0	1197.3
51.86	1232.0	1197.4
51.87	1231.0	1197.4
51.88	1230.0	1197.5
51.89	1269.0	1197.5
51.9	1272.0	1197.5
51.91	1263.0	1197.6
51.92	1259.0	1197.6
51.93	1253.0	1197.7
51.94	1260.0	1197.7
51.95	1243.0	1197.8
51.96	1228.0	1197.8
51.97	1246.0	1197.9
51.98	1244.0	1197.9
51.99	1241.0	1198.0
52.0	1255.0	1198.0
52.01	1243.0	1198.0
52.02	1246.0	1198.1
52.03	1265.0	1198.1
52.04	1246.0	1198.2
52.05	1245.0	1198.2
52.06	1275.0	1198.3
52.07	1274.0	1198.3
52.08	1244.0	1198.4
52.09	1235.0	1198.4
52.1	1254.0	1198.5
52.11	1266.0	1198.5
52.12	1248.0	1198.6
52.13	1279.0	1198.6
52.14	1304.0	1198.7
52.15	1286.0	1198.7
52.16	1288.0	1198.8
52.17	1278.0	1198.8
52.18	1264.0	1198.9
52.19	1263.0	1198.9
52.2	1251.0	1199.0
52.21	1229.0	1199.1
52.22	1243.0	1199.1
52.23	1260.0	1199.2
52.24	1288.0	1199.2
52.25	1296.0	1199.3
52.26	1227.0	1199.3
52.27	1197.0	1199.4
52.28	1225.0	1199.4
52.29	1227.0	1199.5
52.3	1232.0	1199.5
52.31	1252.0	1199.6
52.32	1270.0	1199.7
52.33	1261.0	1199.7
52.34	1242.0	1199.8
52.35	1240.0	1199.8
52.36	1260.0	1199.9
52.37	1289.0	1199.9
52.38	1297.0	1200.0
52.39	1274.0	1200.1
52.4	1263.0	1200.1
52.41	1283.0	1200.2
52.42	1311.0	1200.2
52.43	1348.0	1200.3
52.44	1335.0	1200.4
52.45	1319.0	1200.4
52.46	1307.0	1200.5
52.47	1270.0	1200.5
52.48	1278.0	1200.6
52.49	1335.0	1200.7
52.5	1338.0	1200.7
52.51	1302.0	1200.8
52.52	1294.0	1200.8
52.53	1305.0	1200.9
52.54	1323.0	1201.0
52.55	1313.0	1201.0
52.56	1318.0	1201.1
52.57	1306.0	1201.2
52.58	1279.0	1201.2
52.59	1279.0	1201.3
52.6	1298.0	1201.4
52.61	1295.0	1201.4
52.62	1267.0	1201.5
52.63	1223.0	1201.6
52.64	1208.0	1201.6
52.65	1228.0	1201.7
52.66	1234.0	1201.8
52.67	1249.0	1201.8
52.68	1273.0	1201.9
52.69	1267.0	1202.0
52.7	1266.0	1202.0
52.71	1256.0	1202.1
52.72	1240.0	1202.2
52.73	1247.0	1202.2
52.74	1236.0	1202.3
52.75	1259.0	1202.4
52.76	1277.0	1202.4
52.77	1267.0	1202.5
52.78	1259.0	1202.6
52.79	1268.0	1202.7
52.8	1280.0	1202.7
52.81	1276.0	1202.8
52.82	1263.0	1202.9
52.83	1265.0	1202.9
52.84	1267.0	1203.0
52.85	1268.0	1203.1
52.86	1278.0	1203.2
52.87	1305.0	1203.2
52.88	1294.0	1203.3
52.89	1253.0	1203.4
52.9	1245.0	1203.5
52.91	1256.0	1203.5
52.92	1273.0	1203.6
52.93	1287.0	1203.7
52.94	1291.0	1203.8
52.95	1297.0	1203.8
52.96	1290.0	1203.9
52.97	1267.0	1204.0
52.98	1248.0	1204.1
52.99	1276.0	1204.1
53.0	1292.0	1204.2
53.01	1297.0	1204.3
53.02	1293.0	1204.4
53.03	1294.0	1204.5
53.04	1281.0	1204.5
53.05	1253.0	1204.6
53.06	1262.0	1204.7
53.07	1301.0	1204.8
53.08	1304.0	1204.9
53.09	1300.0	1204.9
53.1	1292.0	1205.0
53.11	1282.0	1205.1
53.12	1260.0	1205.2
53.13	1266.0	1205.3
53.14	1278.0	1205.3
53.15	1279.0	1205.4
53.16	1302.0	1205.5
53.17	1291.0	1205.6
53.18	1265.0	1205.7
53.19	1231.0	1205.8
53.2	1242.0	1205.8
53.21	1277.0	1205.9
53.22	1273.0	1206.0
53.23	1235.0	1206.1
53.24	1211.0	1206.2
53.25	1244.0	1206.3
53.26	1280.0	1206.4
53.27	1288.0	1206.4
53.28	1271.0	1206.5
53.29	1255.0	1206.6
53.3	1258.0	1206.7
53.31	1287.0	1206.8
53.32	1298.0	1206.9
53.33	1270.0	1207.0
53.34	1263.0	1207.1
53.35	1249.0	1207.1
53.36	1238.0	1207.2
53.37	1219.0	1207.3
53.38	1239.0	1207.4
53.39	1237.0	1207.5
53.4	1232.0	1207.6
53.41	1234.0	1207.7
53.42	1234.0	1207.8
53.43	1258.0	1207.9
53.44	1260.0	1208.0
53.45	1237.0	1208.1
53.46	1245.0	1208.1
53.47	1256.0	1208.2
53.48	1249.0	1208.3
53.49	1239.0	1208.4
53.5	1248.0	1208.5
53.51	1264.0	1208.6
53.52	1294.0	1208.7
53.53	1302.0	1208.8
53.54	1255.0	1208.9
53.55	1255.0	1209.0
53.56	1271.0	1209.1
53.57	1238.0	1209.2
53.58	1241.0	1209.3
53.59	1242.0	1209.4
53.6	1244.0	1209.5
53.61	1245.0	1209.6
53.62	1264.0	1209.7
53.63	1282.0	1209.8
53.64	1269.0	1209.9
53.65	1262.0	1210.0
53.66	1270.0	1210.1
53.67	1260.0	1210.2
53.68	1249.0	1210.3
53.69	1243.0	1210.4
53.7	1230.0	1210.5
53.71	1230.0	1210.6
53.72	1229.0	1210.7
53.73	1235.0	1210.8
53.74	1263.0	1210.9
53.75	1287.0	1211.0
53.76	1278.0	1211.1
53.77	1265.0	1211.2
53.78	1270.0	1211.3
53.79	1271.0	1211.4
53.8	1280.0	1211.5
53.81	1283.0	1211.6
53.82	1264.0	1211.7
53.83	1269.0	1211.8
53.84	1297.0	1211.9
53.85	1318.0	1212.0
53.86	1313.0	1212.2
53.87	1290.0	1212.3
53.88	1297.0	1212.4
53.89	1296.0	1212.5
53.9	1255.0	1212.6
53.91	1238.0	1212.7
53.92	1229.0	1212.8
53.93	1251.0	1212.9
53.94	1278.0	1213.0
53.95	1283.0	1213.1
53.96	1286.0	1213.2
53.97	1268.0	1213.3
53.98	1274.0	1213.5
53.99	1290.0	1213.6
54.0	1284.0	1213.7
54.01	1277.0	1213.8
54.02	1260.0	1213.9
54.03	1288.0	1214.0
54.04	1325.0	1214.1
54.05	1285.0	1214.2
54.06	1255.0	1214.4
54.07	1263.0	1214.5
54.08	1278.0	1214.6
54.09	1287.0	1214.7
54.1	1280.0	1214.8
54.11	1259.0	1214.9
54.12	1255.0	1215.1
54.13	1264.0	1215.2
54.14	1265.0	1215.3
54.15	1231.0	1215.4
54.16	1236.0	1215.5
54.17	1264.0	1215.6
54.18	1268.0	1215.8
54.19	1284.0	1215.9
54.2	1277.0	1216.0
54.21	1261.0	1216.1
54.22	1244.0	1216.2
54.23	1249.0	1216.4
54.24	1268.0	1216.5
54.25	1296.0	1216.6
54.26	1299.0	1216.7
54.27	1267.0	1216.8
54.28	1269.0	1217.0
54.29	1299.0	1217.1
54.3	1292.0	1217.2
54.31	1277.0	1217.3
54.32	1302.0	1217.5
54.33	1287.0	1217.6
54.34	1239.0	1217.7
54.35	1271.0	1217.8
54.36	1294.0	1218.0
54.37	1284.0	1218.1
54.38	1289.0	1218.2
54.39	1310.0	1218.3
54.4	1330.0	1218.5
54.41	1345.0	1218.6
54.42	1318.0	1218.7
54.43	1323.0	1218.8
54.44	1343.0	1219.0
54.45	1323.0	1219.1
54.46	1283.0	1219.2
54.47	1274.0	1219.4
54.48	1311.0	1219.5
54.49	1333.0	1219.6
54.5	1353.0	1219.7
54.51	1355.0	1219.9
54.52	1291.0	1220.0
54.53	1251.0	1220.1
54.54	1296.0	1220.3
54.55	1328.0	1220.4
54.56	1321.0	1220.5
54.57	1296.0	1220.7
54.58	1294.0	1220.8
54.59	1344.0	1220.9
54.6	1381.0	1221.1
54.61	1368.0	1221.2
54.62	1336.0	1221.3
54.63	1370.0	1221.5
54.64	1394.0	1221.6
54.65	1384.0	1221.7
54.66	1363.0	1221.9
54.67	1352.0	1222.0
54.68	1352.0	1222.2
54.69	1396.0	1222.3
54.7	1414.0	1222.4
54.71	1431.0	1222.6
54.72	1450.0	1222.7
54.73	1454.0	1222.9
54.74	1440.0	1223.0
54.75	1454.0	1223.1
54.76	1474.0	1223.3
54.77	1474.0	1223.4
54.78	1471.0	1223.6
54.79	1490.0	1223.7
54.8	1500.0	1223.8
54.81	1484.0	1224.0
54.82	1498.0	1224.1
54.83	1525.0	1224.3
54.84	1541.0	1224.4
54.85	1524.0	1224.6
54.86	1520.0	1224.7
54.87	1510.0	1224.8
54.88	1490.0	1225.0
54.89	1474.0	1225.1
54.9	1449.0	1225.3
54.91	1447.0	1225.4
54.92	1440.0	1225.6
54.93	1458.0	1225.7
54.94	1440.0	1225.9
54.95	1427.0	1226.0
54.96	1445.0	1226.2
54.97	1445.0	1226.3
54.98	1427.0	1226.5
54.99	1388.0	1226.6
55.0	1375.0	1226.8
55.01	1385.0	1226.9
55.02	1384.0	1227.1
55.03	1375.0	1227.2
55.04	1361.0	1227.4
55.05	1363.0	1227.5
55.06	1371.0	1227.7
55.07	1388.0	1227.8
55.08	1386.0	1228.0
55.09	1360.0	1228.1
55.1	1335.0	1228.3
55.11	1326.0	1228.4
55.12	1351.0	1228.6
55.13	1327.0	1228.7
55.14	1280.0	1228.9
55.15	1288.0	1229.0
55.16	1313.0	1229.2
55.17	1309.0	1229.4
55.18	1326.0	1229.5
55.19	1350.0	1229.7
55.2	1304.0	1229.8
55.21	1280.0	1230.0
55.22	1325.0	1230.1
55.23	1326.0	1230.3
55.24	1294.0	1230.5
55.25	1305.0	1230.6
55.26	1354.0	1230.8
55.27	1338.0	1230.9
55.28	1308.0	1231.1
55.29	1279.0	1231.3
55.3	1293.0	1231.4
55.31	1256.0	1231.6
55.32	1264.0	1231.8
55.33	1285.0	1231.9
55.34	1282.0	1232.1
55.35	1268.0	1232.2
55.36	1278.0	1232.4
55.37	1292.0	1232.6
55.38	1283.0	1232.7
55.39	1279.0	1232.9
55.4	1301.0	1233.1
55.41	1284.0	1233.2
55.42	1263.0	1233.4
55.43	1255.0	1233.6
55.44	1259.0	1233.7
55.45	1291.0	1233.9
55.46	1294.0	1234.1
55.47	1279.0	1234.2
55.48	1248.0	1234.4
55.49	1247.0	1234.6
55.5	1248.0	1234.8
55.51	1285.0	1234.9
55.52	1260.0	1235.1
55.53	1257.0	1235.3
55.54	1264.0	1235.4
55.55	1283.0	1235.6
55.56	1278.0	1235.8
55.57	1280.0	1236.0
55.58	1282.0	1236.1
55.59	1277.0	1236.3
55.6	1279.0	1236.5
55.61	1281.0	1236.6
55.62	1268.0	1236.8
55.63	1268.0	1237.0
55.64	1295.0	1237.2
55.65	1274.0	1237.4
55.66	1255.0	1237.5
55.67	1268.0	1237.7
55.68	1250.0	1237.9
55.69	1264.0	1238.1
55.7	1284.0	1238.2
55.71	1268.0	1238.4
55.72	1265.0	1238.6
55.73	1252.0	1238.8
55.74	1224.0	1239.0
55.75	1237.0	1239.1
55.76	1273.0	1239.3
55.77	1290.0	1239.5
55.78	1279.0	1239.7
55.79	1292.0	1239.9
55.8	1299.0	1240.0
55.81	1298.0	1240.2
55.82	1307.0	1240.4
55.83	1304.0	1240.6
55.84	1262.0	1240.8
55.85	1229.0	1241.0
55.86	1250.0	1241.1
55.87	1247.0	1241.3
55.88	1250.0	1241.5
55.89	1273.0	1241.7
55.9	1302.0	1241.9
55.91	1282.0	1242.1
55.92	1254.0	1242.3
55.93	1266.0	1242.5
55.94	1250.0	1242.6
55.95	1246.0	1242.8
55.96	1295.0	1243.0
55.97	1315.0	1243.2
55.98	1281.0	1243.4
55.99	1282.0	1243.6
56.0	1296.0	1243.8
56.01	1295.0	1244.0
56.02	1265.0	1244.2
56.03	1259.0	1244.3
56.04	1279.0	1244.5
56.05	1306.0	1244.7
56.06	1294.0	1244.9
56.07	1269.0	1245.1
56.08	1267.0	1245.3
56.09	1281.0	1245.5
56.1	1290.0	1245.7
56.11	1283.0	1245.9
56.12	1261.0	1246.1
56.13	1265.0	1246.3
56.14	1291.0	1246.5
56.15	1277.0	1246.7
56.16	1270.0	1246.9
56.17	1267.0	1247.1
56.18	1292.0	1247.3
56.19	1325.0	1247.5
56.2	1322.0	1247.7
56.21	1301.0	1247.9
56.22	1300.0	1248.0
56.23	1296.0	1248.2
56.24	1286.0	1248.4
56.25	1279.0	1248.6
56.26	1273.0	1248.8
56.27	1272.0	1249.0
56.28	1271.0	1249.2
56.29	1254.0	1249.4
56.3	1274.0	1249.6
56.31	1270.0	1249.8
56.32	1270.0	1250.0
56.33	1285.0	1250.2
56.34	1309.0	1250.4
56.35	1284.0	1250.7
56.36	1261.0	1250.9
56.37	1289.0	1251.1
56.38	1308.0	1251.3
56.39	1309.0	1251.5
56.4	1311.0	1251.7
56.41	1278.0	1251.9
56.42	1269.0	1252.1
56.43	1279.0	1252.3
56.44	1281.0	1252.5
56.45	1312.0	1252.7
56.46	1301.0	1252.9
56.47	1281.0	1253.1
56.48	1299.0	1253.3
56.49	1314.0	1253.5
56.5	1280.0	1253.7
56.51	1267.0	1253.9
56.52	1267.0	1254.1
56.53	1263.0	1254.3
56.54	1263.0	1254.5
56.55	1259.0	1254.7
56.56	1254.0	1255.0
56.57	1266.0	1255.2
56.58	1299.0	1255.4
56.59	1305.0	1255.6
56.6	1299.0	1255.8
56.61	1316.0	1256.0
56.62	1319.0	1256.2
56.63	1290.0	1256.4
56.64	1262.0	1256.6
56.65	1258.0	1256.8
56.66	1262.0	1257.0
56.67	1284.0	1257.3
56.68	1289.0	1257.5
56.69	1253.0	1257.7
56.7	1250.0	1257.9
56.71	1282.0	1258.1
56.72	1275.0	1258.3
56.73	1239.0	1258.5
56.74	1242.0	1258.7
56.75	1272.0	1258.9
56.76	1285.0	1259.2
56.77	1289.0	1259.4
56.78	1282.0	1259.6
56.79	1268.0	1259.8
56.8	1285.0	1260.0
56.81	1295.0	1260.2
56.82	1285.0	1260.4
56.83	1284.0	1260.7
56.84	1278.0	1260.9
56.85	1273.0	1261.1
56.86	1261.0	1261.3
56.87	1253.0	1261.5
56.88	1263.0	1261.7
56.89	1287.0	1261.9
56.9	1268.0	1262.2
56.91	1234.0	1262.4
56.92	1243.0	1262.6
56.93	1290.0	1262.8
56.94	1279.0	1263.0
56.95	1294.0	1263.2
56.96	1297.0	1263.4
56.97	1290.0	1263.7
56.98	1303.0	1263.9
56.99	1300.0	1264.1
57.0	1306.0	1264.3
57.01	1284.0	1264.5
57.02	1271.0	1264.7
57.03	1287.0	1265.0
57.04	1291.0	1265.2
57.05	1275.0	1265.4
57.06	1292.0	1265.6
57.07	1318.0	1265.8
57.08	1284.0	1266.1
57.09	1254.0	1266.3
57.1	1280.0	1266.5
57.11	1304.0	1266.7
57.12	1295.0	1266.9
57.13	1278.0	1267.1
57.14	1266.0	1267.4
57.15	1278.0	1267.6
57.16	1258.0	1267.8
57.17	1283.0	1268.0
57.18	1279.0	1268.2
57.19	1282.0	1268.5
57.2	1274.0	1268.7
57.21	1302.0	1268.9
57.22	1318.0	1269.1
57.23	1365.0	1269.3
57.24	1339.0	1269.6
57.25	1315.0	1269.8
57.26	1319.0	1270.0
57.27	1330.0	1270.2
57.28	1336.0	1270.4
57.29	1316.0	1270.7
57.3	1302.0	1270.9
57.31	1283.0	1271.1
57.32	1264.0	1271.3
57.33	1268.0	1271.6
57.34	1267.0	1271.8
57.35	1266.0	1272.0
57.36	1289.0	1272.2
57.37	1279.0	1272.4
57.38	1271.0	1272.7
57.39	1300.0	1272.9
57.4	1333.0	1273.1
57.41	1319.0	1273.3
57.42	1270.0	1273.5
57.43	1273.0	1273.8
57.44	1291.0	1274.0
57.45	1318.0	1274.2
57.46	1324.0	1274.4
57.47	1311.0	1274.7
57.48	1294.0	1274.9
57.49	1308.0	1275.1
57.5	1313.0	1275.3
57.51	1313.0	1275.5
57.52	1286.0	1275.8
57.53	1272.0	1276.0
57.54	1264.0	1276.2
57.55	1287.0	1276.4
57.56	1312.0	1276.7
57.57	1320.0	1276.9
57.58	1317.0	1277.1
57.59	1292.0	1277.3
57.6	1314.0	1277.6
57.61	1324.0	1277.8
57.62	1292.0	1278.0
57.63	1277.0	1278.2
57.64	1289.0	1278.4
57.65	1284.0	1278.7
57.66	1259.0	1278.9
57.67	1286.0	1279.1
57.68	1295.0	1279.3
57.69	1281.0	1279.6
57.7	1281.0	1279.8
57.71	1286.0	1280.0
57.72	1283.0	1280.2
57.73	1300.0	1280.5
57.74	1319.0	1280.7
57.75	1318.0	1280.9
57.76	1326.0	1281.1
57.77	1342.0	1281.3
57.78	1331.0	1281.6
57.79	1295.0	1281.8
57.8	1250.0	1282.0
57.81	1249.0	1282.2
57.82	1257.0	1282.5
57.83	1281.0	1282.7
57.84	1304.0	1282.9
57.85	1291.0	1283.1
57.86	1280.0	1283.4
57.87	1303.0	1283.6
57.88	1289.0	1283.8
57.89	1297.0	1284.0
57.9	1296.0	1284.3
57.91	1288.0	1284.5
57.92	1285.0	1284.7
57.93	1291.0	1284.9
57.94	1277.0	1285.1
57.95	1288.0	1285.4
57.96	1305.0	1285.6
57.97	1313.0	1285.8
57.98	1287.0	1286.0
57.99	1270.0	1286.3
58.0	1295.0	1286.5
58.01	1304.0	1286.7
58.02	1330.0	1286.9
58.03	1334.0	1287.2
58.04	1340.0	1287.4
58.05	1333.0	1287.6
58.06	1335.0	1287.8
58.07	1334.0	1288.0
58.08	1323.0	1288.3
58.09	1300.0	1288.5
58.1	1283.0	1288.7
58.11	1328.0	1288.9
58.12	1346.0	1289.2
58.13	1320.0	1289.4
58.14	1291.0	1289.6
58.15	1285.0	1289.8
58.16	1291.0	1290.0
58.17	1307.0	1290.3
58.18	1295.0	1290.5
58.19	1306.0	1290.7
58.2	1307.0	1290.9
58.21	1319.0	1291.2
58.22	1328.0	1291.4
58.23	1278.0	1291.6
58.24	1274.0	1291.8
58.25	1316.0	1292.0
58.26	1335.0	1292.3
58.27	1295.0	1292.5
58.28	1293.0	1292.7
58.29	1328.0	1292.9
58.3	1358.0	1293.1
58.31	1341.0	1293.4
58.32	1324.0	1293.6
58.33	1323.0	1293.8
58.34	1324.0	1294.0
58.35	1316.0	1294.2
58.36	1303.0	1294.5
58.37	1306.0	1294.7
58.38	1329.0	1294.9
58.39	1312.0	1295.1
58.4	1304.0	1295.3
58.41	1292.0	1295.6
58.42	1298.0	1295.8
58.43	1325.0	1296.0
58.44	1330.0	1296.2
58.45	1306.0	1296.4
58.46	1320.0	1296.7
58.47	1345.0	1296.9
58.48	1336.0	1297.1
58.49	1290.0	1297.3
58.5	1272.0	1297.5
58.51	1300.0	1297.7
58.52	1317.0	1298.0
58.53	1334.0	1298.2
58.54	1342.0	1298.4
58.55	1341.0	1298.6
58.56	1330.0	1298.8
58.57	1345.0	1299.1
58.58	1332.0	1299.3
58.59	1330.0	1299.5
58.6	1342.0	1299.7
58.61	1346.0	1299.9
58.62	1341.0	1300.1
58.63	1354.0	1300.4
58.64	1331.0	1300.6
58.65	1327.0	1300.8
58.66	1325.0	1301.0
58.67	1313.0	1301.2
58.68	1334.0	1301.4
58.69	1322.0	1301.6
58.7	1346.0	1301.9
58.71	1352.0	1302.1
58.72	1358.0	1302.3
58.73	1347.0	1302.5
58.74	1332.0	1302.7
58.75	1347.0	1302.9
58.76	1353.0	1303.1
58.77	1362.0	1303.4
58.78	1364.0	1303.6
58.79	1335.0	1303.8
58.8	1360.0	1304.0
58.81	1394.0	1304.2
58.82	1401.0	1304.4
58.83	1397.0	1304.6
58.84	1403.0	1304.9
58.85	1421.0	1305.1
58.86	1432.0	1305.3
58.87	1393.0	1305.5
58.88	1405.0	1305.7
58.89	1443.0	1305.9
58.9	1435.0	1306.1
58.91	1409.0	1306.3
58.92	1423.0	1306.5
58.93	1464.0	1306.7
58.94	1454.0	1307.0
58.95	1464.0	1307.2
58.96	1481.0	1307.4
58.97	1476.0	1307.6
58.98	1480.0	1307.8
58.99	1499.0	1308.0
59.0	1503.0	1308.2
59.01	1480.0	1308.4
59.02	1505.0	1308.6
59.03	1513.0	1308.8
59.04	1501.0	1309.0
59.05	1491.0	1309.3
59.06	1481.0	1309.5
59.07	1458.0	1309.7
59.08	1442.0	1309.9
59.09	1461.0	1310.1
59.1	1482.0	1310.3
59.11	1471.0	1310.5
59.12	1488.0	1310.7
59.13	1471.0	1310.9
59.14	1452.0	1311.1
59.15	1462.0	1311.3
59.16	1512.0	1311.5
59.17	1502.0	1311.7
59.18	1450.0	1311.9
59.19	1428.0	1312.1
59.2	1454.0	1312.3
59.21	1435.0	1312.5
59.22	1418.0	1312.7
59.23	1436.0	1312.9
59.24	1427.0	1313.1
59.25	1450.0	1313.3
59.26	1493.0	1313.5
59.27	1480.0	1313.7
59.28	1485.0	1313.9
59.29	1430.0	1314.1
59.3	1425.0	1314.3
59.31	1391.0	1314.5
59.32	1363.0	1314.7
59.33	1374.0	1314.9
59.34	1391.0	1315.1
59.35	1440.0	1315.3
59.36	1433.0	1315.5
59.37	1412.0	1315.7
59.38	1399.0	1315.9
59.39	1394.0	1316.1
59.4	1401.0	1316.3
59.41	1408.0	1316.5
59.42	1418.0	1316.7
59.43	1418.0	1316.9
59.44	1365.0	1317.1
59.45	1317.0	1317.3
59.46	1356.0	1317.5
59.47	1395.0	1317.7
59.48	1416.0	1317.9
59.49	1422.0	1318.1
59.5	1409.0	1318.3
59.51	1393.0	1318.5
59.52	1382.0	1318.7
59.53	1416.0	1318.9
59.54	1410.0	1319.0
59.55	1398.0	1319.2
59.56	1409.0	1319.4
59.57	1399.0	1319.6
59.58	1396.0	1319.8
59.59	1409.0	1320.0
59.6	1467.0	1320.2
59.61	1458.0	1320.4
59.62	1415.0	1320.6
59.63	1418.0	1320.8
59.64	1434.0	1320.9
59.65	1422.0	1321.1
59.66	1388.0	1321.3
59.67	1376.0	1321.5
59.68	1370.0	1321.7
59.69	1409.0	1321.9
59.7	1418.0	1322.1
59.71	1426.0	1322.3
59.72	1399.0	1322.4
59.73	1372.0	1322.6
59.74	1420.0	1322.8
59.75	1414.0	1323.0
59.76	1412.0	1323.2
59.77	1397.0	1323.4
59.78	1392.0	1323.5
59.79	1388.0	1323.7
59.8	1424.0	1323.9
59.81	1440.0	1324.1
59.82	1412.0	1324.3
59.83	1416.0	1324.4
59.84	1403.0	1324.6
59.85	1448.0	1324.8
59.86	1436.0	1325.0
59.87	1427.0	1325.2
59.88	1389.0	1325.3
59.89	1423.0	1325.5
59.9	1412.0	1325.7
59.91	1442.0	1325.9
59.92	1399.0	1326.1
59.93	1423.0	1326.2
59.94	1400.0	1326.4
59.95	1424.0	1326.6
59.96	1422.0	1326.8
59.97	1453.0	1326.9
59.98	1386.0	1327.1
59.99	1417.0	1327.3
60.0	1438.0	1327.5
60.01	1414.0	1327.6
60.02	1390.0	1327.8
60.03	1384.0	1328.0
60.04	1435.0	1328.1
60.05	1422.0	1328.3
60.06	1410.0	1328.5
60.07	1402.0	1328.7
60.08	1387.0	1328.8
60.09	1380.0	1329.0
60.1	1357.0	1329.2
60.11	1391.0	1329.3
60.12	1369.0	1329.5
60.13	1390.0	1329.7
60.14	1379.0	1329.8
60.15	1393.0	1330.0
60.16	1388.0	1330.2
60.17	1375.0	1330.3
60.18	1351.0	1330.5
60.19	1343.0	1330.7
60.2	1355.0	1330.8
60.21	1385.0	1331.0
60.22	1377.0	1331.1
60.23	1390.0	1331.3
60.24	1391.0	1331.5
60.25	1381.0	1331.6
60.26	1363.0	1331.8
60.27	1350.0	1332.0
60.28	1348.0	1332.1
60.29	1378.0	1332.3
60.3	1359.0	1332.4
60.31	1348.0	1332.6
60.32	1372.0	1332.7
60.33	1356.0	1332.9
60.34	1404.0	1333.1
60.35	1360.0	1333.2
60.36	1352.0	1333.4
60.37	1368.0	1333.5
60.38	1351.0	1333.7
60.39	1368.0	1333.8
60.4	1354.0	1334.0
60.41	1392.0	1334.1
60.42	1359.0	1334.3
60.43	1382.0	1334.4
60.44	1406.0	1334.6
60.45	1376.0	1334.7
60.46	1364.0	1334.9
60.47	1397.0	1335.0
60.48	1432.0	1335.2
60.49	1397.0	1335.3
60.5	1387.0	1335.5
60.51	1406.0	1335.6
60.52	1361.0	1335.8
60.53	1324.0	1335.9
60.54	1395.0	1336.1
60.55	1443.0	1336.2
60.56	1404.0	1336.4
60.57	1393.0	1336.5
60.58	1369.0	1336.7
60.59	1314.0	1336.8
60.6	1326.0	1336.9
60.61	1358.0	1337.1
60.62	1383.0	1337.2
60.63	1378.0	1337.4
60.64	1356.0	1337.5
60.65	1356.0	1337.6
60.66	1353.0	1337.8
60.67	1346.0	1337.9
60.68	1363.0	1338.1
60.69	1370.0	1338.2
60.7	1343.0	1338.3
60.71	1332.0	1338.5
60.72	1343.0	1338.6
60.73	1417.0	1338.7
60.74	1392.0	1338.9
60.75	1348.0	1339.0
60.76	1338.0	1339.1
60.77	1310.0	1339.3
60.78	1359.0	1339.4
60.79	1381.0	1339.5
60.8	1358.0	1339.7
60.81	1340.0	1339.8
60.82	1373.0	1339.9
60.83	1362.0	1340.1
60.84	1380.0	1340.2
60.85	1368.0	1340.3
60.86	1406.0	1340.4
60.87	1425.0	1340.6
60.88	1400.0	1340.7
60.89	1418.0	1340.8
60.9	1409.0	1340.9
60.91	1375.0	1341.1
60.92	1356.0	1341.2
60.93	1392.0	1341.3
60.94	1384.0	1341.4
60.95	1362.0	1341.6
60.96	1387.0	1341.7
60.97	1396.0	1341.8
60.98	1356.0	1341.9
60.99	1317.0	1342.0
61.0	1340.0	1342.1
61.01	1343.0	1342.3
61.02	1371.0	1342.4
61.03	1366.0	1342.5
61.04	1378.0	1342.6
61.05	1383.0	1342.7
61.06	1393.0	1342.8
61.07	1386.0	1343.0
61.08	1422.0	1343.1
61.09	1425.0	1343.2
61.1	1391.0	1343.3
61.11	1396.0	1343.4
61.12	1437.0	1343.5
61.13	1434.0	1343.6
61.14	1389.0	1343.7
61.15	1416.0	1343.9
61.16	1387.0	1344.0
61.17	1393.0	1344.1
61.18	1418.0	1344.2
61.19	1403.0	1344.3
61.2	1388.0	1344.4
61.21	1389.0	1344.5
61.22	1389.0	1344.6
61.23	1392.0	1344.7
61.24	1383.0	1344.8
61.25	1397.0	1344.9
61.26	1431.0	1345.0
61.27	1403.0	1345.1
61.28	1402.0	1345.2
61.29	1404.0	1345.3
61.3	1438.0	1345.4
61.31	1463.0	1345.5
61.32	1462.0	1345.6
61.33	1497.0	1345.7
61.34	1436.0	1345.8
61.35	1431.0	1345.9
61.36	1463.0	1346.0
61.37	1467.0	1346.1
61.38	1445.0	1346.2
61.39	1404.0	1346.3
61.4	1399.0	1346.4
61.41	1434.0	1346.5
61.42	1450.0	1346.6
61.43	1460.0	1346.7
61.44	1486.0	1346.8
61.45	1484.0	1346.9
61.46	1451.0	1347.0
61.47	1450.0	1347.1
61.48	1447.0	1347.2
61.49	1479.0	1347.3
61.5	1539.0	1347.4
61.51	1557.0	1347.5
61.52	1600.0	1347.5
61.53	1565.0	1347.6
61.54	1473.0	1347.7
61.55	1506.0	1347.8
61.56	1543.0	1347.9
61.57	1570.0	1348.0
61.58	1603.0	1348.1
61.59	1600.0	1348.2
61.6	1628.0	1348.2
61.61	1593.0	1348.3
61.62	1586.0	1348.4
61.63	1624.0	1348.5
61.64	1623.0	1348.6
61.65	1607.0	1348.7
61.66	1573.0	1348.7
61.67	1629.0	1348.8
61.68	1698.0	1348.9
61.69	1702.0	1349.0
61.7	1700.0	1349.1
61.71	1706.0	1349.2
61.72	1717.0	1349.2
61.73	1749.0	1349.3
61.74	1790.0	1349.4
61.75	1824.0	1349.5
61.76	1845.0	1349.6
61.77	1847.0	1349.6
61.78	1862.0	1349.7
61.79	1890.0	1349.8
61.8	1897.0	1349.9
61.81	1938.0	1349.9
61.82	1970.0	1350.0
61.83	2013.0	1350.1
61.84	2095.0	1350.2
61.85	2138.0	1350.2
61.86	2138.0	1350.3
61.87	2168.0	1350.4
61.88	2244.0	1350.5
61.89	2298.0	1350.5
61.9	2323.0	1350.6
61.91	2427.0	1350.7
61.92	2501.0	1350.7
61.93	2572.0	1350.8
61.94	2701.0	1350.9
61.95	2807.0	1351.0
61.96	2896.0	1351.0
61.97	2977.0	1351.1
61.98	3142.0	1351.2
61.99	3257.0	1351.2
62.0	3381.0	1351.3
62.01	3517.0	1351.4
62.02	3648.0	1351.4
62.03	3801.0	1351.5
62.04	3907.0	1351.6
62.05	3911.0	1351.6
62.06	3913.0	1351.7
62.07	3964.0	1351.7
62.08	4003.0	1351.8
62.09	3913.0	1351.9
62.1	3928.0	1351.9
62.11	3938.0	1352.0
62.12	3900.0	1352.1
62.13	3789.0	1352.1
62.14	3677.0	1352.2
62.15	3632.0	1352.2
62.16	3566.0	1352.3
62.17	3534.0	1352.4
62.18	3474.0	1352.4
62.19	3421.0	1352.5
62.2	3379.0	1352.5
62.21	3357.0	1352.6
62.22	3318.0	1352.7
62.23	3295.0	1352.7
62.24	3238.0	1352.8
62.25	3155.0	1352.8
62.26	3068.0	1352.9
62.27	2996.0	1352.9
62.28	3001.0	1353.0
62.29	2816.0	1353.1
62.3	2740.0	1353.1
62.31	2720.0	1353.2
62.32	2624.0	1353.2
62.33	2617.0	1353.3
62.34	2510.0	1353.3
62.35	2437.0	1353.4
62.36	2362.0	1353.4
62.37	2268.0	1353.5
62.38	2214.0	1353.5
62.39	2161.0	1353.6
62.4	2117.0	1353.6
62.41	2075.0	1353.7
62.42	2043.0	1353.7
62.43	2085.0	1353.8
62.44	2073.0	1353.8
62.45	1985.0	1353.9
62.46	1963.0	1353.9
62.47	1949.0	1354.0
62.48	1915.0	1354.0
62.49	1925.0	1354.1
62.5	1891.0	1354.1
62.51	1908.0	1354.2
62.52	1936.0	1354.2
62.53	1895.0	1354.3
62.54	1842.0	1354.3
62.55	1820.0	1354.3
62.56	1886.0	1354.4
62.57	1907.0	1354.4
62.58	1907.0	1354.5
62.59	1855.0	1354.5
62.6	1881.0	1354.6
62.61	1993.0	1354.6
62.62	1946.0	1354.6
62.63	1929.0	1354.7
62.64	1957.0	1354.7
62.65	1936.0	1354.8
62.66	1933.0	1354.8
62.67	2017.0	1354.9
62.68	2005.0	1354.9
62.69	2013.0	1354.9
62.7	2020.0	1355.0
62.71	1973.0	1355.0
62.72	1964.0	1355.1
62.73	1951.0	1355.1
62.74	1920.0	1355.1
62.75	1903.0	1355.2
62.76	1938.0	1355.2
62.77	1926.0	1355.2
62.78	1874.0	1355.3
62.79	1820.0	1355.3
62.8	1835.0	1355.4
62.81	1822.0	1355.4
62.82	1857.0	1355.4
62.83	1879.0	1355.5
62.84	1852.0	1355.5
62.85	1875.0	1355.5
62.86	1829.0	1355.6
62.87	1778.0	1355.6
62.88	1805.0	1355.6
62.89	1740.0	1355.7
62.9	1753.0	1355.7
62.91	1722.0	1355.7
62.92	1794.0	1355.8
62.93	1741.0	1355.8
62.94	1685.0	1355.8
62.95	1711.0	1355.9
62.96	1673.0	1355.9
62.97	1681.0	1355.9
62.98	1671.0	1355.9
62.99	1667.0	1356.0
63.0	1644.0	1356.0
63.01	1599.0	1356.0
63.02	1572.0	1356.1
63.03	1587.0	1356.1
63.04	1583.0	1356.1
63.05	1605.0	1356.2
63.06	1592.0	1356.2
63.07	1610.0	1356.2
63.08	1612.0	1356.2
63.09	1559.0	1356.3
63.1	1547.0	1356.3
63.11	1522.0	1356.3
63.12	1533.0	1356.3
63.13	1542.0	1356.4
63.14	1575.0	1356.4
63.15	1556.0	1356.4
63.16	1529.0	1356.4
63.17	1552.0	1356.5
63.18	1570.0	1356.5
63.19	1546.0	1356.5
63.2	1510.0	1356.5
63.21	1483.0	1356.6
63.22	1498.0	1356.6
63.23	1494.0	1356.6
63.24	1569.0	1356.6
63.25	1579.0	1356.7
63.26	1561.0	1356.7
63.27	1535.0	1356.7
63.28	1546.0	1356.7
63.29	1539.0	1356.7
63.3	1540.0	1356.8
63.31	1480.0	1356.8
63.32	1452.0	1356.8
63.33	1463.0	1356.8
63.34	1507.0	1356.8
63.35	1528.0	1356.9
63.36	1461.0	1356.9
63.37	1493.0	1356.9
63.38	1532.0	1356.9
63.39	1537.0	1356.9
63.4	1529.0	1357.0
63.41	1518.0	1357.0
63.42	1557.0	1357.0
63.43	1525.0	1357.0
63.44	1473.0	1357.0
63.45	1530.0	1357.1
63.46	1554.0	1357.1
63.47	1504.0	1357.1
63.48	1521.0	1357.1
63.49	1522.0	1357.1
63.5	1531.0	1357.1
63.51	1614.0	1357.2
63.52	1540.0	1357.2
63.53	1494.0	1357.2
63.54	1517.0	1357.2
63.55	1482.0	1357.2
63.56	1483.0	1357.2
63.57	1501.0	1357.2
63.58	1546.0	1357.3
63.59	1528.0	1357.3
63.6	1534.0	1357.3
63.61	1521.0	1357.3
63.62	1542.0	1357.3
63.63	1552.0	1357.3
63.64	1550.0	1357.3
63.65	1548.0	1357.4
63.66	1578.0	1357.4
63.67	1596.0	1357.4
63.68	1564.0	1357.4
63.69	1608.0	1357.4
63.7	1560.0	1357.4
63.71	1552.0	1357.4
63.72	1559.0	1357.4
63.73	1500.0	1357.5
63.74	1563.0	1357.5
63.75	1554.0	1357.5
63.76	1524.0	1357.5
63.77	1557.0	1357.5
63.78	1608.0	1357.5
63.79	1607.0	1357.5
63.8	1589.0	1357.5
63.81	1604.0	1357.5
63.82	1568.0	1357.5
63.83	1576.0	1357.6
63.84	1590.0	1357.6
63.85	1574.0	1357.6
63.86	1566.0	1357.6
63.87	1569.0	1357.6
63.88	1550.0	1357.6
63.89	1570.0	1357.6
63.9	1577.0	1357.6
63.91	1555.0	1357.6
63.92	1558.0	1357.6
63.93	1570.0	1357.6
63.94	1609.0	1357.6
63.95	1569.0	1357.7
63.96	1548.0	1357.7
63.97	1594.0	1357.7
63.98	1584.0	1357.7
63.99	1565.0	1357.7
64.0	1554.0	1357.7
64.01	1547.0	1357.7
64.02	1536.0	1357.7
64.03	1527.0	1357.7
64.04	1539.0	1357.7
64.05	1560.0	1357.7
64.06	1576.0	1357.7
64.07	1560.0	1357.7
64.08	1493.0	1357.7
64.09	1510.0	1357.7
64.1	1539.0	1357.7
64.11	1514.0	1357.7
64.12	1547.0	1357.7
64.13	1517.0	1357.8
64.14	1480.0	1357.8
64.15	1476.0	1357.8
64.16	1454.0	1357.8
64.17	1465.0	1357.8
64.18	1457.0	1357.8
64.19	1481.0	1357.8
64.2	1484.0	1357.8
64.21	1491.0	1357.8
64.22	1522.0	1357.8
64.23	1502.0	1357.8
64.24	1464.0	1357.8
64.25	1482.0	1357.8
64.26	1494.0	1357.8
64.27	1458.0	1357.8
64.28	1452.0	1357.8
64.29	1474.0	1357.8
64.3	1444.0	1357.8
64.31	1453.0	1357.8
64.32	1478.0	1357.8
64.33	1448.0	1357.8
64.34	1462.0	1357.8
64.35	1459.0	1357.8
64.36	1416.0	1357.8
64.37	1392.0	1357.8
64.38	1469.0	1357.8
64.39	1464.0	1357.8
64.4	1430.0	1357.8
64.41	1464.0	1357.8
64.42	1432.0	1357.8
64.43	1410.0	1357.8
64.44	1415.0	1357.8
64.45	1414.0	1357.8
64.46	1437.0	1357.8
64.47	1426.0	1357.8
64.48	1450.0	1357.8
64.49	1374.0	1357.8
64.5	1354.0	1357.8
64.51	1408.0	1357.8
64.52	1421.0	1357.8
64.53	1442.0	1357.8
64.54	1429.0	1357.8
64.55	1443.0	1357.8
64.56	1432.0	1357.8
64.57	1436.0	1357.8
64.58	1426.0	1357.8
64.59	1346.0	1357.8
64.6	1393.0	1357.8
64.61	1401.0	1357.8
64.62	1442.0	1357.8
64.63	1379.0	1357.8
64.64	1404.0	1357.8
64.65	1461.0	1357.8
64.66	1461.0	1357.8
64.67	1423.0	1357.8
64.68	1388.0	1357.8
64.69	1403.0	1357.8
64.7	1417.0	1357.8
64.71	1433.0	1357.8
64.72	1432.0	1357.8
64.73	1433.0	1357.8
64.74	1465.0	1357.8
64.75	1482.0	1357.8
64.76	1487.0	1357.8
64.77	1454.0	1357.8
64.78	1363.0	1357.8
64.79	1443.0	1357.8
64.8	1437.0	1357.8
64.81	1447.0	1357.8
64.82	1440.0	1357.8
64.83	1422.0	1357.8
64.84	1424.0	1357.8
64.85	1354.0	1357.8
64.86	1400.0	1357.8
64.87	1472.0	1357.8
64.88	1425.0	1357.8
64.89	1455.0	1357.7
64.9	1436.0	1357.7
64.91	1387.0	1357.7
64.92	1401.0	1357.7
64.93	1420.0	1357.7
64.94	1439.0	1357.7
64.95	1484.0	1357.7
64.96	1425.0	1357.7
64.97	1442.0	1357.7
64.98	1385.0	1357.7
64.99	1405.0	1357.7
65.0	1414.0	1357.7
65.01	1408.0	1357.7
65.02	1412.0	1357.7
65.03	1463.0	1357.7
65.04	1435.0	1357.7
65.05	1471.0	1357.7
65.06	1461.0	1357.7
65.07	1418.0	1357.7
65.08	1394.0	1357.7
65.09	1411.0	1357.7
65.1	1471.0	1357.7
65.11	1487.0	1357.7
65.12	1508.0	1357.7
65.13	1488.0	1357.7
65.14	1489.0	1357.7
65.15	1512.0	1357.7
65.16	1494.0	1357.7
65.17	1504.0	1357.7
65.18	1547.0	1357.7
65.19	1512.0	1357.6
65.2	1487.0	1357.6
65.21	1489.0	1357.6
65.22	1497.0	1357.6
65.23	1541.0	1357.6
65.24	1498.0	1357.6
65.25	1494.0	1357.6
65.26	1493.0	1357.6
65.27	1512.0	1357.6
65.28	1518.0	1357.6
65.29	1550.0	1357.6
65.3	1545.0	1357.6
65.31	1573.0	1357.6
65.32	1548.0	1357.6
65.33	1603.0	1357.6
65.34	1625.0	1357.6
65.35	1604.0	1357.6
65.36	1636.0	1357.6
65.37	1626.0	1357.6
65.38	1623.0	1357.6
65.39	1687.0	1357.6
65.4	1681.0	1357.6
65.41	1734.0	1357.6
65.42	1741.0	1357.6
65.43	1783.0	1357.6
65.44	1810.0	1357.6
65.45	1901.0	1357.6
65.46	1916.0	1357.6
65.47	1890.0	1357.6
65.48	1908.0	1357.6
65.49	2020.0	1357.5
65.5	2039.0	1357.5
65.51	2044.0	1357.5
65.52	2048.0	1357.5
65.53	2065.0	1357.5
65.54	2102.0	1357.5
65.55	2084.0	1357.5
65.56	2033.0	1357.5
65.57	1992.0	1357.5
65.58	1981.0	1357.5
65.59	1951.0	1357.5
65.6	1962.0	1357.5
65.61	1932.0	1357.5
65.62	1922.0	1357.5
65.63	1935.0	1357.5
65.64	1909.0	1357.5
65.65	1961.0	1357.5
65.66	1914.0	1357.5
65.67	1846.0	1357.5
65.68	1872.0	1357.5
65.69	1902.0	1357.5
65.7	1876.0	1357.5
65.71	1841.0	1357.5
65.72	1854.0	1357.5
65.73	1833.0	1357.5
65.74	1813.0	1357.5
65.75	1741.0	1357.5
65.76	1739.0	1357.5
65.77	1698.0	1357.5
65.78	1703.0	1357.5
65.79	1714.0	1357.5
65.8	1668.0	1357.5
65.81	1618.0	1357.5
65.82	1637.0	1357.5
65.83	1614.0	1357.5
65.84	1619.0	1357.5
65.85	1594.0	1357.5
65.86	1539.0	1357.5
65.87	1547.0	1357.5
65.88	1558.0	1357.5
65.89	1563.0	1357.5
65.9	1577.0	1357.5
65.91	1571.0	1357.5
65.92	1506.0	1357.5
65.93	1497.0	1357.5
65.94	1501.0	1357.5
65.95	1473.0	1357.5
65.96	1468.0	1357.5
65.97	1485.0	1357.5
65.98	1522.0	1357.5
65.99	1555.0	1357.5
66.0	1512.0	1357.5
66.01	1483.0	1357.5
66.02	1470.0	1357.5
66.03	1491.0	1357.5
66.04	1426.0	1357.5
66.05	1457.0	1357.5
66.06	1522.0	1357.5
66.07	1437.0	1357.5
66.08	1410.0	1357.5
66.09	1447.0	1357.5
66.1	1495.0	1357.5
66.11	1447.0	1357.5
66.12	1435.0	1357.5
66.13	1428.0	1357.5
66.14	1384.0	1357.5
66.15	1415.0	1357.5
66.16	1420.0	1357.5
66.17	1429.0	1357.5
66.18	1440.0	1357.5
66.19	1374.0	1357.5
66.2	1370.0	1357.5
66.21	1402.0	1357.5
66.22	1433.0	1357.5
66.23	1380.0	1357.5
66.24	1415.0	1357.5
66.25	1393.0	1357.6
66.26	1387.0	1357.6
66.27	1371.0	1357.6
66.28	1409.0	1357.6
66.29	1449.0	1357.6
66.3	1447.0	1357.6
66.31	1417.0	1357.6
66.32	1449.0	1357.6
66.33	1421.0	1357.6
66.34	1433.0	1357.6
66.35	1409.0	1357.6
66.36	1388.0	1357.6
66.37	1357.0	1357.6
66.38	1398.0	1357.6
66.39	1408.0	1357.6
66.4	1365.0	1357.6
66.41	1363.0	1357.6
66.42	1356.0	1357.6
66.43	1363.0	1357.7
66.44	1420.0	1357.7
66.45	1437.0	1357.7
66.46	1416.0	1357.7
66.47	1393.0	1357.7
66.48	1383.0	1357.7
66.49	1379.0	1357.7
66.5	1412.0	1357.7
66.51	1421.0	1357.7
66.52	1409.0	1357.7
66.53	1406.0	1357.7
66.54	1396.0	1357.7
66.55	1362.0	1357.8
66.56	1431.0	1357.8
66.57	1433.0	1357.8
66.58	1396.0	1357.8
66.59	1412.0	1357.8
66.6	1424.0	1357.8
66.61	1434.0	1357.8
66.62	1423.0	1357.8
66.63	1443.0	1357.8
66.64	1427.0	1357.8
66.65	1397.0	1357.9
66.66	1410.0	1357.9
66.67	1404.0	1357.9
66.68	1398.0	1357.9
66.69	1398.0	1357.9
66.7	1404.0	1357.9
66.71	1420.0	1357.9
66.72	1393.0	1357.9
66.73	1396.0	1358.0
66.74	1396.0	1358.0
66.75	1414.0	1358.0
66.76	1429.0	1358.0
66.77	1455.0	1358.0
66.78	1425.0	1358.0
66.79	1420.0	1358.0
66.8	1435.0	1358.1
66.81	1424.0	1358.1
66.82	1407.0	1358.1
66.83	1421.0	1358.1
66.84	1411.0	1358.1
66.85	1422.0	1358.1
66.86	1368.0	1358.1
66.87	1393.0	1358.2
66.88	1405.0	1358.2
66.89	1395.0	1358.2
66.9	1462.0	1358.2
66.91	1443.0	1358.2
66.92	1421.0	1358.2
66.93	1410.0	1358.3
66.94	1466.0	1358.3
66.95	1522.0	1358.3
66.96	1464.0	1358.3
66.97	1490.0	1358.3
66.98	1496.0	1358.4
66.99	1473.0	1358.4
67.0	1480.0	1358.4
67.01	1477.0	1358.4
67.02	1514.0	1358.4
67.03	1476.0	1358.5
67.04	1484.0	1358.5
67.05	1527.0	1358.5
67.06	1509.0	1358.5
67.07	1486.0	1358.5
67.08	1534.0	1358.6
67.09	1537.0	1358.6
67.1	1579.0	1358.6
67.11	1554.0	1358.6
67.12	1551.0	1358.6
67.13	1550.0	1358.7
67.14	1591.0	1358.7
67.15	1616.0	1358.7
67.16	1594.0	1358.7
67.17	1612.0	1358.8
67.18	1619.0	1358.8
67.19	1655.0	1358.8
67.2	1719.0	1358.8
67.21	1744.0	1358.9
67.22	1775.0	1358.9
67.23	1799.0	1358.9
67.24	1809.0	1358.9
67.25	1797.0	1359.0
67.26	1852.0	1359.0
67.27	1868.0	1359.0
67.28	1879.0	1359.0
67.29	1867.0	1359.1
67.3	1845.0	1359.1
67.31	1843.0	1359.1
67.32	1850.0	1359.1
67.33	1846.0	1359.2
67.34	1817.0	1359.2
67.35	1749.0	1359.2
67.36	1745.0	1359.3
67.37	1775.0	1359.3
67.38	1720.0	1359.3
67.39	1759.0	1359.4
67.4	1784.0	1359.4
67.41	1701.0	1359.4
67.42	1698.0	1359.4
67.43	1697.0	1359.5
67.44	1740.0	1359.5
67.45	1767.0	1359.5
67.46	1762.0	1359.6
67.47	1699.0	1359.6
67.48	1704.0	1359.6
67.49	1720.0	1359.7
67.5	1667.0	1359.7
67.51	1607.0	1359.7
67.52	1586.0	1359.8
67.53	1621.0	1359.8
67.54	1578.0	1359.8
67.55	1519.0	1359.9
67.56	1552.0	1359.9
67.57	1493.0	1359.9
67.58	1471.0	1360.0
67.59	1488.0	1360.0
67.6	1511.0	1360.1
67.61	1541.0	1360.1
67.62	1528.0	1360.1
67.63	1493.0	1360.2
67.64	1464.0	1360.2
67.65	1448.0	1360.2
67.66	1445.0	1360.3
67.67	1465.0	1360.3
67.68	1450.0	1360.4
67.69	1466.0	1360.4
67.7	1466.0	1360.4
67.71	1468.0	1360.5
67.72	1447.0	1360.5
67.73	1460.0	1360.6
67.74	1447.0	1360.6
67.75	1454.0	1360.6
67.76	1426.0	1360.7
67.77	1460.0	1360.7
67.78	1462.0	1360.8
67.79	1463.0	1360.8
67.8	1433.0	1360.9
67.81	1410.0	1360.9
67.82	1405.0	1361.0
67.83	1442.0	1361.0
67.84	1407.0	1361.0
67.85	1407.0	1361.1
67.86	1445.0	1361.1
67.87	1434.0	1361.2
67.88	1423.0	1361.2
67.89	1450.0	1361.3
67.9	1429.0	1361.3
67.91	1389.0	1361.4
67.92	1386.0	1361.4
67.93	1391.0	1361.5
67.94	1424.0	1361.5
67.95	1442.0	1361.6
67.96	1416.0	1361.6
67.97	1450.0	1361.7
67.98	1419.0	1361.7
67.99	1383.0	1361.8
68.0	1415.0	1361.8
68.01	1429.0	1361.9
68.02	1454.0	1361.9
68.03	1444.0	1362.0
68.04	1392.0	1362.0
68.05	1363.0	1362.1
68.06	1378.0	1362.1
68.07	1403.0	1362.2
68.08	1432.0	1362.2
68.09	1388.0	1362.3
68.1	1396.0	1362.4
68.11	1397.0	1362.4
68.12	1408.0	1362.5
68.13	1427.0	1362.5
68.14	1448.0	1362.6
68.15	1451.0	1362.6
68.16	1418.0	1362.7
68.17	1369.0	1362.8
68.18	1364.0	1362.8
68.19	1423.0	1362.9
68.2	1392.0	1362.9
68.21	1364.0	1363.0
68.22	1353.0	1363.0
68.23	1365.0	1363.1
68.24	1352.0	1363.2
68.25	1385.0	1363.2
68.26	1435.0	1363.3
68.27	1454.0	1363.4
68.28	1409.0	1363.4
68.29	1399.0	1363.5
68.3	1390.0	1363.5
68.31	1396.0	1363.6
68.32	1418.0	1363.7
68.33	1434.0	1363.7
68.34	1428.0	1363.8
68.35	1414.0	1363.9
68.36	1447.0	1363.9
68.37	1401.0	1364.0
68.38	1367.0	1364.1
68.39	1405.0	1364.1
68.4	1449.0	1364.2
68.41	1457.0	1364.3
68.42	1416.0	1364.3
68.43	1423.0	1364.4
68.44	1432.0	1364.5
68.45	1415.0	1364.6
68.46	1355.0	1364.6
68.47	1404.0	1364.7
68.48	1407.0	1364.8
68.49	1352.0	1364.8
68.5	1413.0	1364.9
68.51	1401.0	1365.0
68.52	1356.0	1365.0
68.53	1382.0	1365.1
68.54	1421.0	1365.2
68.55	1412.0	1365.3
68.56	1409.0	1365.3
68.57	1428.0	1365.4
68.58	1406.0	1365.5
68.59	1395.0	1365.6
68.6	1444.0	1365.6
68.61	1432.0	1365.7
68.62	1406.0	1365.8
68.63	1396.0	1365.9
68.64	1401.0	1366.0
68.65	1393.0	1366.0
68.66	1364.0	1366.1
68.67	1405.0	1366.2
68.68	1427.0	1366.3
68.69	1464.0	1366.3
68.7	1420.0	1366.4
68.71	1402.0	1366.5
68.72	1427.0	1366.6
68.73	1413.0	1366.7
68.74	1433.0	1366.7
68.75	1421.0	1366.8
68.76	1370.0	1366.9
68.77	1377.0	1367.0
68.78	1374.0	1367.1
68.79	1376.0	1367.2
68.8	1438.0	1367.2
68.81	1427.0	1367.3
68.82	1435.0	1367.4
68.83	1486.0	1367.5
68.84	1434.0	1367.6
68.85	1430.0	1367.7
68.86	1381.0	1367.7
68.87	1429.0	1367.8
68.88	1420.0	1367.9
68.89	1445.0	1368.0
68.9	1412.0	1368.1
68.91	1415.0	1368.2
68.92	1451.0	1368.3
68.93	1461.0	1368.3
68.94	1457.0	1368.4
68.95	1427.0	1368.5
68.96	1376.0	1368.6
68.97	1406.0	1368.7
68.98	1450.0	1368.8
68.99	1445.0	1368.9
69.0	1407.0	1369.0
69.01	1387.0	1369.1
69.02	1400.0	1369.1
69.03	1415.0	1369.2
69.04	1428.0	1369.3
69.05	1445.0	1369.4
69.06	1459.0	1369.5
69.07	1443.0	1369.6
69.08	1433.0	1369.7
69.09	1417.0	1369.8
69.1	1411.0	1369.9
69.11	1436.0	1370.0
69.12	1440.0	1370.1
69.13	1442.0	1370.2
69.14	1450.0	1370.3
69.15	1453.0	1370.4
69.16	1434.0	1370.5
69.17	1460.0	1370.5
69.18	1485.0	1370.6
69.19	1501.0	1370.7
69.2	1467.0	1370.8
69.21	1447.0	1370.9
69.22	1459.0	1371.0
69.23	1402.0	1371.1
69.24	1423.0	1371.2
69.25	1441.0	1371.3
69.26	1403.0	1371.4
69.27	1429.0	1371.5
69.28	1481.0	1371.6
69.29	1374.0	1371.7
69.3	1354.0	1371.8
69.31	1393.0	1371.9
69.32	1418.0	1372.0
69.33	1426.0	1372.1
69.34	1428.0	1372.2
69.35	1423.0	1372.3
69.36	1443.0	1372.4
69.37	1461.0	1372.5
69.38	1442.0	1372.6
69.39	1427.0	1372.7
69.4	1477.0	1372.8
69.41	1460.0	1372.9
69.42	1433.0	1373.0
69.43	1497.0	1373.1
69.44	1452.0	1373.2
69.45	1469.0	1373.3
69.46	1439.0	1373.4
69.47	1467.0	1373.5
69.48	1530.0	1373.7
69.49	1461.0	1373.8
69.5	1468.0	1373.9
69.51	1546.0	1374.0
69.52	1507.0	1374.1
69.53	1475.0	1374.2
69.54	1496.0	1374.3
69.55	1514.0	1374.4
69.56	1522.0	1374.5
69.57	1499.0	1374.6
69.58	1495.0	1374.7
69.59	1484.0	1374.8
69.6	1501.0	1374.9
69.61	1542.0	1375.0
69.62	1529.0	1375.1
69.63	1509.0	1375.3
69.64	1529.0	1375.4
69.65	1487.0	1375.5
69.66	1474.0	1375.6
69.67	1498.0	1375.7
69.68	1554.0	1375.8
69.69	1509.0	1375.9
69.7	1465.0	1376.0
69.71	1499.0	1376.1
69.72	1447.0	1376.2
69.73	1478.0	1376.4
69.74	1508.0	1376.5
69.75	1511.0	1376.6
69.76	1482.0	1376.7
69.77	1436.0	1376.8
69.78	1438.0	1376.9
69.79	1459.0	1377.0
69.8	1470.0	1377.1
69.81	1485.0	1377.2
69.82	1473.0	1377.4
69.83	1470.0	1377.5
69.84	1470.0	1377.6
69.85	1445.0	1377.7
69.86	1478.0	1377.8
69.87	1455.0	1377.9
69.88	1502.0	1378.0
69.89	1474.0	1378.2
69.9	1442.0	1378.3
69.91	1408.0	1378.4
69.92	1400.0	1378.5
69.93	1447.0	1378.6
69.94	1466.0	1378.7
69.95	1489.0	1378.9
69.96	1496.0	1379.0
69.97	1458.0	1379.1
69.98	1442.0	1379.2
69.99	1461.0	1379.3
70.0	1459.0	1379.4
70.01	1453.0	1379.6
70.02	1451.0	1379.7
70.03	1484.0	1379.8
70.04	1478.0	1379.9
70.05	1460.0	1380.0
70.06	1457.0	1380.1
70.07	1422.0	1380.3
70.08	1520.0	1380.4
70.09	1501.0	1380.5
70.1	1479.0	1380.6
70.11	1451.0	1380.7
70.12	1487.0	1380.9
70.13	1486.0	1381.0
70.14	1499.0	1381.1
70.15	1502.0	1381.2
70.16	1478.0	1381.3
70.17	1478.0	1381.5
70.18	1497.0	1381.6
70.19	1514.0	1381.7
70.2	1533.0	1381.8
70.21	1567.0	1381.9
70.22	1510.0	1382.1
70.23	1518.0	1382.2
70.24	1559.0	1382.3
70.25	1557.0	1382.4
70.26	1555.0	1382.6
70.27	1523.0	1382.7
70.28	1582.0	1382.8
70.29	1567.0	1382.9
70.3	1617.0	1383.0
70.31	1626.0	1383.2
70.32	1540.0	1383.3
70.33	1598.0	1383.4
70.34	1584.0	1383.5
70.35	1577.0	1383.7
70.36	1591.0	1383.8
70.37	1619.0	1383.9
70.38	1622.0	1384.0
70.39	1612.0	1384.2
70.4	1623.0	1384.3
70.41	1628.0	1384.4
70.42	1662.0	1384.5
70.43	1612.0	1384.7
70.44	1578.0	1384.8
70.45	1563.0	1384.9
70.46	1563.0	1385.0
70.47	1597.0	1385.2
70.48	1631.0	1385.3
70.49	1570.0	1385.4
70.5	1637.0	1385.5
70.51	1656.0	1385.7
70.52	1633.0	1385.8
70.53	1590.0	1385.9
70.54	1596.0	1386.0
70.55	1602.0	1386.2
70.56	1577.0	1386.3
70.57	1587.0	1386.4
70.58	1604.0	1386.6
70.59	1558.0	1386.7
70.6	1568.0	1386.8
70.61	1560.0	1386.9
70.62	1578.0	1387.1
70.63	1631.0	1387.2
70.64	1590.0	1387.3
70.65	1562.0	1387.5
70.66	1585.0	1387.6
70.67	1605.0	1387.7
70.68	1590.0	1387.8
70.69	1624.0	1388.0
70.7	1642.0	1388.1
70.71	1628.0	1388.2
70.72	1568.0	1388.4
70.73	1564.0	1388.5
70.74	1587.0	1388.6
70.75	1558.0	1388.7
70.76	1585.0	1388.9
70.77	1630.0	1389.0
70.78	1641.0	1389.1
70.79	1604.0	1389.3
70.8	1536.0	1389.4
70.81	1563.0	1389.5
70.82	1588.0	1389.7
70.83	1555.0	1389.8
70.84	1555.0	1389.9
70.85	1561.0	1390.0
70.86	1598.0	1390.2
70.87	1624.0	1390.3
70.88	1569.0	1390.4
70.89	1552.0	1390.6
70.9	1579.0	1390.7
70.91	1608.0	1390.8
70.92	1622.0	1391.0
70.93	1548.0	1391.1
70.94	1574.0	1391.2
70.95	1552.0	1391.4
70.96	1557.0	1391.5
70.97	1553.0	1391.6
70.98	1544.0	1391.8
70.99	1556.0	1391.9
71.0	1531.0	1392.0
71.01	1527.0	1392.2
71.02	1561.0	1392.3
71.03	1510.0	1392.4
71.04	1512.0	1392.6
71.05	1541.0	1392.7
71.06	1537.0	1392.8
71.07	1530.0	1392.9
71.08	1534.0	1393.1
71.09	1486.0	1393.2
71.1	1489.0	1393.3
71.11	1502.0	1393.5
71.12	1471.0	1393.6
71.13	1512.0	1393.7
71.14	1508.0	1393.9
71.15	1521.0	1394.0
71.16	1543.0	1394.1
71.17	1536.0	1394.3
71.18	1509.0	1394.4
71.19	1527.0	1394.6
71.2	1516.0	1394.7
71.21	1493.0	1394.8
71.22	1538.0	1395.0
71.23	1503.0	1395.1
71.24	1510.0	1395.2
71.25	1510.0	1395.4
71.26	1503.0	1395.5
71.27	1486.0	1395.6
71.28	1458.0	1395.8
71.29	1453.0	1395.9
71.3	1476.0	1396.0
71.31	1484.0	1396.2
71.32	1507.0	1396.3
71.33	1512.0	1396.4
71.34	1467.0	1396.6
71.35	1440.0	1396.7
71.36	1447.0	1396.8
71.37	1520.0	1397.0
71.38	1497.0	1397.1
71.39	1506.0	1397.2
71.4	1432.0	1397.4
71.41	1447.0	1397.5
71.42	1502.0	1397.6
71.43	1492.0	1397.8
71.44	1485.0	1397.9
71.45	1462.0	1398.1
71.46	1499.0	1398.2
71.47	1471.0	1398.3
71.48	1456.0	1398.5
71.49	1459.0	1398.6
71.5	1473.0	1398.7
71.51	1455.0	1398.9
71.52	1458.0	1399.0
71.53	1455.0	1399.1
71.54	1476.0	1399.3
71.55	1504.0	1399.4
71.56	1517.0	1399.5
71.57	1432.0	1399.7
71.58	1439.0	1399.8
71.59	1450.0	1399.9
71.6	1440.0	1400.1
71.61	1460.0	1400.2
71.62	1460.0	1400.4
71.63	1423.0	1400.5
71.64	1469.0	1400.6
71.65	1485.0	1400.8
71.66	1492.0	1400.9
71.67	1498.0	1401.0
71.68	1469.0	1401.2
71.69	1458.0	1401.3
71.7	1461.0	1401.4
71.71	1460.0	1401.6
71.72	1423.0	1401.7
71.73	1427.0	1401.8
71.74	1472.0	1402.0
71.75	1467.0	1402.1
71.76	1435.0	1402.3
71.77	1462.0	1402.4
71.78	1468.0	1402.5
71.79	1463.0	1402.7
71.8	1466.0	1402.8
71.81	1466.0	1402.9
71.82	1457.0	1403.1
71.83	1455.0	1403.2
71.84	1475.0	1403.3
71.85	1493.0	1403.5
71.86	1483.0	1403.6
71.87	1470.0	1403.7
71.88	1423.0	1403.9
71.89	1421.0	1404.0
71.9	1430.0	1404.2
71.91	1435.0	1404.3
71.92	1464.0	1404.4
71.93	1540.0	1404.6
71.94	1504.0	1404.7
71.95	1432.0	1404.8
71.96	1450.0	1405.0
71.97	1454.0	1405.1
71.98	1481.0	1405.2
71.99	1520.0	1405.4
72.0	1491.0	1405.5
72.01	1411.0	1405.6
72.02	1478.0	1405.8
72.03	1478.0	1405.9
72.04	1459.0	1406.1
72.05	1451.0	1406.2
72.06	1465.0	1406.3
72.07	1463.0	1406.5
72.08	1466.0	1406.6
72.09	1500.0	1406.7
72.1	1498.0	1406.9
72.11	1487.0	1407.0
72.12	1469.0	1407.1
72.13	1450.0	1407.3
72.14	1474.0	1407.4
72.15	1465.0	1407.5
72.16	1423.0	1407.7
72.17	1434.0	1407.8
72.18	1476.0	1407.9
72.19	1454.0	1408.1
72.2	1464.0	1408.2
72.21	1447.0	1408.3
72.22	1473.0	1408.5
72.23	1449.0	1408.6
72.24	1451.0	1408.7
72.25	1440.0	1408.9
72.26	1504.0	1409.0
72.27	1469.0	1409.2
72.28	1491.0	1409.3
72.29	1464.0	1409.4
72.3	1426.0	1409.6
72.31	1452.0	1409.7
72.32	1448.0	1409.8
72.33	1487.0	1410.0
72.34	1483.0	1410.1
72.35	1479.0	1410.2
72.36	1508.0	1410.4
72.37	1513.0	1410.5
72.38	1463.0	1410.6
72.39	1460.0	1410.8
72.4	1466.0	1410.9
72.41	1467.0	1411.0
72.42	1451.0	1411.2
72.43	1541.0	1411.3
72.44	1497.0	1411.4
72.45	1562.0	1411.6
72.46	1505.0	1411.7
72.47	1526.0	1411.8
72.48	1501.0	1412.0
72.49	1475.0	1412.1
72.5	1415.0	1412.2
72.51	1469.0	1412.3
72.52	1545.0	1412.5
72.53	1502.0	1412.6
72.54	1518.0	1412.7
72.55	1528.0	1412.9
72.56	1500.0	1413.0
72.57	1508.0	1413.1
72.58	1540.0	1413.3
72.59	1488.0	1413.4
72.6	1486.0	1413.5
72.61	1469.0	1413.7
72.62	1462.0	1413.8
72.63	1447.0	1413.9
72.64	1489.0	1414.1
72.65	1510.0	1414.2
72.66	1529.0	1414.3
72.67	1498.0	1414.5
72.68	1500.0	1414.6
72.69	1542.0	1414.7
72.7	1510.0	1414.8
72.71	1536.0	1415.0
72.72	1528.0	1415.1
72.73	1540.0	1415.2
72.74	1548.0	1415.4
72.75	1603.0	1415.5
72.76	1556.0	1415.6
72.77	1596.0	1415.8
72.78	1621.0	1415.9
72.79	1560.0	1416.0
72.8	1598.0	1416.1
72.81	1601.0	1416.3
72.82	1583.0	1416.4
72.83	1590.0	1416.5
72.84	1629.0	1416.7
72.85	1615.0	1416.8
72.86	1605.0	1416.9
72.87	1608.0	1417.0
72.88	1651.0	1417.2
72.89	1677.0	1417.3
72.9	1705.0	1417.4
72.91	1683.0	1417.6
72.92	1697.0	1417.7
72.93	1678.0	1417.8
72.94	1705.0	1417.9
72.95	1702.0	1418.1
72.96	1677.0	1418.2
72.97	1620.0	1418.3
72.98	1609.0	1418.4
72.99	1641.0	1418.6
73.0	1650.0	1418.7
73.01	1660.0	1418.8
73.02	1691.0	1418.9
73.03	1659.0	1419.1
73.04	1696.0	1419.2
73.05	1655.0	1419.3
73.06	1658.0	1419.5
73.07	1694.0	1419.6
73.08	1692.0	1419.7
73.09	1691.0	1419.8
73.1	1651.0	1420.0
73.11	1663.0	1420.1
73.12	1636.0	1420.2
73.13	1590.0	1420.3
73.14	1622.0	1420.4
73.15	1662.0	1420.6
73.16	1653.0	1420.7
73.17	1678.0	1420.8
73.18	1695.0	1420.9
73.19	1683.0	1421.1
73.2	1701.0	1421.2
73.21	1630.0	1421.3
73.22	1621.0	1421.4
73.23	1655.0	1421.6
73.24	1683.0	1421.7
73.25	1669.0	1421.8
73.26	1661.0	1421.9
73.27	1606.0	1422.0
73.28	1617.0	1422.2
73.29	1593.0	1422.3
73.3	1597.0	1422.4
73.31	1618.0	1422.5
73.32	1599.0	1422.7
73.33	1573.0	1422.8
73.34	1624.0	1422.9
73.35	1612.0	1423.0
73.36	1654.0	1423.1
73.37	1630.0	1423.3
73.38	1582.0	1423.4
73.39	1569.0	1423.5
73.4	1608.0	1423.6
73.41	1631.0	1423.7
73.42	1581.0	1423.9
73.43	1594.0	1424.0
73.44	1595.0	1424.1
73.45	1570.0	1424.2
73.46	1546.0	1424.3
73.47	1539.0	1424.4
73.48	1544.0	1424.6
73.49	1520.0	1424.7
73.5	1533.0	1424.8
73.51	1515.0	1424.9
73.52	1573.0	1425.0
73.53	1594.0	1425.1
73.54	1605.0	1425.3
73.55	1548.0	1425.4
73.56	1503.0	1425.5
73.57	1522.0	1425.6
73.58	1523.0	1425.7
73.59	1524.0	1425.8
73.6	1511.0	1426.0
73.61	1513.0	1426.1
73.62	1523.0	1426.2
73.63	1530.0	1426.3
73.64	1537.0	1426.4
73.65	1546.0	1426.5
73.66	1531.0	1426.6
73.67	1492.0	1426.8
73.68	1520.0	1426.9
73.69	1519.0	1427.0
73.7	1502.0	1427.1
73.71	1514.0	1427.2
73.72	1539.0	1427.3
73.73	1515.0	1427.4
73.74	1524.0	1427.5
73.75	1481.0	1427.7
73.76	1536.0	1427.8
73.77	1538.0	1427.9
73.78	1530.0	1428.0
73.79	1493.0	1428.1
73.8	1510.0	1428.2
73.81	1507.0	1428.3
73.82	1475.0	1428.4
73.83	1494.0	1428.5
73.84	1488.0	1428.7
73.85	1466.0	1428.8
73.86	1488.0	1428.9
73.87	1464.0	1429.0
73.88	1482.0	1429.1
73.89	1489.0	1429.2
73.9	1495.0	1429.3
73.91	1474.0	1429.4
73.92	1456.0	1429.5
73.93	1462.0	1429.6
73.94	1499.0	1429.7
73.95	1516.0	1429.8
73.96	1469.0	1429.9
73.97	1514.0	1430.0
73.98	1512.0	1430.2
73.99	1465.0	1430.3
74.0	1442.0	1430.4
74.01	1445.0	1430.5
74.02	1463.0	1430.6
74.03	1482.0	1430.7
74.04	1450.0	1430.8
74.05	1464.0	1430.9
74.06	1478.0	1431.0
74.07	1507.0	1431.1
74.08	1510.0	1431.2
74.09	1507.0	1431.3
74.1	1495.0	1431.4
74.11	1487.0	1431.5
74.12	1539.0	1431.6
74.13	1546.0	1431.7
74.14	1486.0	1431.8
74.15	1467.0	1431.9
74.16	1499.0	1432.0
74.17	1481.0	1432.1
74.18	1467.0	1432.2
74.19	1500.0	1432.3
74.2	1473.0	1432.4
74.21	1433.0	1432.5
74.22	1491.0	1432.6
74.23	1498.0	1432.7
74.24	1460.0	1432.8
74.25	1490.0	1432.9
74.26	1476.0	1433.0
74.27	1444.0	1433.1
74.28	1495.0	1433.2
74.29	1486.0	1433.3
74.3	1464.0	1433.4
74.31	1485.0	1433.5
74.32	1516.0	1433.6
74.33	1509.0	1433.7
74.34	1543.0	1433.8
74.35	1495.0	1433.9
74.36	1521.0	1434.0
74.37	1446.0	1434.1
74.38	1499.0	1434.2
74.39	1487.0	1434.2
74.4	1459.0	1434.3
74.41	1477.0	1434.4
74.42	1519.0	1434.5
74.43	1518.0	1434.6
74.44	1485.0	1434.7
74.45	1483.0	1434.8
74.46	1496.0	1434.9
74.47	1447.0	1435.0
74.48	1394.0	1435.1
74.49	1429.0	1435.2
74.5	1449.0	1435.3
74.51	1495.0	1435.3
74.52	1509.0	1435.4
74.53	1469.0	1435.5
74.54	1501.0	1435.6
74.55	1510.0	1435.7
74.56	1500.0	1435.8
74.57	1486.0	1435.9
74.58	1485.0	1436.0
74.59	1468.0	1436.1
74.6	1474.0	1436.1
74.61	1505.0	1436.2
74.62	1506.0	1436.3
74.63	1480.0	1436.4
74.64	1451.0	1436.5
74.65	1463.0	1436.6
74.66	1465.0	1436.7
74.67	1487.0	1436.7
74.68	1525.0	1436.8
74.69	1506.0	1436.9
74.7	1525.0	1437.0
74.71	1532.0	1437.1
74.72	1480.0	1437.2
74.73	1414.0	1437.2
74.74	1443.0	1437.3
74.75	1508.0	1437.4
74.76	1452.0	1437.5
74.77	1463.0	1437.6
74.78	1511.0	1437.6
74.79	1488.0	1437.7
74.8	1437.0	1437.8
74.81	1482.0	1437.9
74.82	1479.0	1438.0
74.83	1503.0	1438.1
74.84	1503.0	1438.1
74.85	1509.0	1438.2
74.86	1532.0	1438.3
74.87	1494.0	1438.4
74.88	1519.0	1438.4
74.89	1523.0	1438.5
74.9	1516.0	1438.6
74.91	1492.0	1438.7
74.92	1461.0	1438.8
74.93	1429.0	1438.8
74.94	1438.0	1438.9
74.95	1457.0	1439.0
74.96	1522.0	1439.1
74.97	1513.0	1439.1
74.98	1521.0	1439.2
74.99	1498.0	1439.3
75.0	1444.0	1439.4
75.01	1485.0	1439.4
75.02	1473.0	1439.5
75.03	1476.0	1439.6
75.04	1482.0	1439.7
75.05	1520.0	1439.7
75.06	1519.0	1439.8
75.07	1463.0	1439.9
75.08	1433.0	1440.0
75.09	1452.0	1440.0
75.1	1474.0	1440.1
75.11	1487.0	1440.2
75.12	1493.0	1440.2
75.13	1464.0	1440.3
75.14	1453.0	1440.4
75.15	1475.0	1440.5
75.16	1517.0	1440.5
75.17	1454.0	1440.6
75.18	1443.0	1440.7
75.19	1458.0	1440.7
75.2	1449.0	1440.8
75.21	1435.0	1440.9
75.22	1423.0	1440.9
75.23	1446.0	1441.0
75.24	1442.0	1441.1
75.25	1440.0	1441.2
75.26	1444.0	1441.2
75.27	1433.0	1441.3
75.28	1473.0	1441.4
75.29	1453.0	1441.4
75.3	1480.0	1441.5
75.31	1505.0	1441.6
75.32	1483.0	1441.6
75.33	1474.0	1441.7
75.34	1459.0	1441.8
75.35	1395.0	1441.8
75.36	1402.0	1441.9
75.37	1425.0	1442.0
75.38	1452.0	1442.0
75.39	1455.0	1442.1
75.4	1482.0	1442.2
75.41	1456.0	1442.2
75.42	1441.0	1442.3
75.43	1422.0	1442.3
75.44	1449.0	1442.4
75.45	1457.0	1442.5
75.46	1454.0	1442.5
75.47	1441.0	1442.6
75.48	1457.0	1442.7
75.49	1451.0	1442.7
75.5	1442.0	1442.8
75.51	1486.0	1442.9
75.52	1498.0	1442.9
75.53	1453.0	1443.0
75.54	1435.0	1443.0
75.55	1450.0	1443.1
75.56	1462.0	1443.2
75.57	1448.0	1443.2
75.58	1459.0	1443.3
75.59	1444.0	1443.3
75.6	1469.0	1443.4
75.61	1470.0	1443.5
75.62	1457.0	1443.5
75.63	1436.0	1443.6
75.64	1474.0	1443.6
75.65	1491.0	1443.7
75.66	1397.0	1443.8
75.67	1443.0	1443.8
75.68	1396.0	1443.9
75.69	1396.0	1443.9
75.7	1428.0	1444.0
75.71	1416.0	1444.1
75.72	1410.0	1444.1
75.73	1412.0	1444.2
75.74	1465.0	1444.2
75.75	1448.0	1444.3
75.76	1432.0	1444.3
75.77	1435.0	1444.4
75.78	1451.0	1444.5
75.79	1419.0	1444.5
75.8	1443.0	1444.6
75.81	1445.0	1444.6
75.82	1471.0	1444.7
75.83	1491.0	1444.7
75.84	1441.0	1444.8
75.85	1444.0	1444.9
75.86	1486.0	1444.9
75.87	1442.0	1445.0
75.88	1475.0	1445.0
75.89	1487.0	1445.1
75.9	1490.0	1445.1
75.91	1477.0	1445.2
75.92	1437.0	1445.2
75.93	1445.0	1445.3
75.94	1446.0	1445.3
75.95	1478.0	1445.4
75.96	1477.0	1445.5
75.97	1481.0	1445.5
75.98	1494.0	1445.6
75.99	1494.0	1445.6
76.0	1497.0	1445.7
76.01	1499.0	1445.7
76.02	1470.0	1445.8
76.03	1431.0	1445.8
76.04	1458.0	1445.9
76.05	1438.0	1445.9
76.06	1456.0	1446.0
76.07	1468.0	1446.0
76.08	1442.0	1446.1
76.09	1491.0	1446.1
76.1	1445.0	1446.2
76.11	1431.0	1446.2
76.12	1445.0	1446.3
76.13	1473.0	1446.3
76.14	1487.0	1446.4
76.15	1484.0	1446.4
76.16	1423.0	1446.5
76.17	1453.0	1446.5
76.18	1499.0	1446.6
76.19	1480.0	1446.6
76.2	1447.0	1446.7
76.21	1440.0	1446.7
76.22	1445.0	1446.8
76.23	1468.0	1446.8
76.24	1479.0	1446.9
76.25	1448.0	1446.9
76.26	1466.0	1447.0
76.27	1485.0	1447.0
76.28	1469.0	1447.1
76.29	1513.0	1447.1
76.3	1476.0	1447.2
76.31	1481.0	1447.2
76.32	1415.0	1447.3
76.33	1411.0	1447.3
76.34	1440.0	1447.4
76.35	1465.0	1447.4
76.36	1431.0	1447.5
76.37	1431.0	1447.5
76.38	1493.0	1447.6
76.39	1496.0	1447.6
76.4	1475.0	1447.7
76.41	1435.0	1447.7
76.42	1441.0	1447.8
76.43	1470.0	1447.8
76.44	1457.0	1447.8
76.45	1465.0	1447.9
76.46	1493.0	1447.9
76.47	1543.0	1448.0
76.48	1504.0	1448.0
76.49	1457.0	1448.1
76.5	1482.0	1448.1
76.51	1415.0	1448.2
76.52	1449.0	1448.2
76.53	1475.0	1448.3
76.54	1482.0	1448.3
76.55	1449.0	1448.3
76.56	1470.0	1448.4
76.57	1460.0	1448.4
76.58	1449.0	1448.5
76.59	1464.0	1448.5
76.6	1465.0	1448.6
76.61	1440.0	1448.6
76.62	1459.0	1448.7
76.63	1468.0	1448.7
76.64	1433.0	1448.8
76.65	1474.0	1448.8
76.66	1466.0	1448.8
76.67	1507.0	1448.9
76.68	1448.0	1448.9
76.69	1480.0	1449.0
76.7	1448.0	1449.0
76.71	1496.0	1449.1
76.72	1461.0	1449.1
76.73	1431.0	1449.1
76.74	1469.0	1449.2
76.75	1459.0	1449.2
76.76	1432.0	1449.3
76.77	1413.0	1449.3
76.78	1449.0	1449.4
76.79	1483.0	1449.4
76.8	1483.0	1449.5
76.81	1489.0	1449.5
76.82	1469.0	1449.5
76.83	1469.0	1449.6
76.84	1437.0	1449.6
76.85	1462.0	1449.7
76.86	1469.0	1449.7
76.87	1429.0	1449.8
76.88	1502.0	1449.8
76.89	1468.0	1449.8
76.9	1449.0	1449.9
76.91	1431.0	1449.9
76.92	1443.0	1450.0
76.93	1448.0	1450.0
76.94	1502.0	1450.0
76.95	1473.0	1450.1
76.96	1450.0	1450.1
76.97	1468.0	1450.2
76.98	1536.0	1450.2
76.99	1516.0	1450.3
77.0	1501.0	1450.3
77.01	1494.0	1450.3
77.02	1508.0	1450.4
77.03	1527.0	1450.4
77.04	1497.0	1450.5
77.05	1436.0	1450.5
77.06	1458.0	1450.5
77.07	1441.0	1450.6
77.08	1433.0	1450.6
77.09	1504.0	1450.7
77.1	1519.0	1450.7
77.11	1510.0	1450.8
77.12	1481.0	1450.8
77.13	1465.0	1450.8
77.14	1465.0	1450.9
77.15	1537.0	1450.9
77.16	1568.0	1451.0
77.17	1493.0	1451.0
77.18	1474.0	1451.0
77.19	1485.0	1451.1
77.2	1487.0	1451.1
77.21	1495.0	1451.2
77.22	1493.0	1451.2
77.23	1474.0	1451.2
77.24	1477.0	1451.3
77.25	1483.0	1451.3
77.26	1483.0	1451.4
77.27	1455.0	1451.4
77.28	1440.0	1451.4
77.29	1449.0	1451.5
77.3	1460.0	1451.5
77.31	1460.0	1451.6
77.32	1454.0	1451.6
77.33	1437.0	1451.6
77.34	1475.0	1451.7
77.35	1474.0	1451.7
77.36	1483.0	1451.8
77.37	1483.0	1451.8
77.38	1453.0	1451.8
77.39	1471.0	1451.9
77.4	1494.0	1451.9
77.41	1485.0	1452.0
77.42	1454.0	1452.0
77.43	1453.0	1452.0
77.44	1478.0	1452.1
77.45	1489.0	1452.1
77.46	1498.0	1452.2
77.47	1536.0	1452.2
77.48	1496.0	1452.2
77.49	1473.0	1452.3
77.5	1488.0	1452.3
77.51	1501.0	1452.4
77.52	1527.0	1452.4
77.53	1481.0	1452.5
77.54	1498.0	1452.5
77.55	1508.0	1452.5
77.56	1483.0	1452.6
77.57	1435.0	1452.6
77.58	1481.0	1452.7
77.59	1475.0	1452.7
77.6	1482.0	1452.7
77.61	1515.0	1452.8
77.62	1540.0	1452.8
77.63	1509.0	1452.9
77.64	1489.0	1452.9
77.65	1514.0	1452.9
77.66	1495.0	1453.0
77.67	1530.0	1453.0
77.68	1496.0	1453.1
77.69	1484.0	1453.1
77.7	1522.0	1453.1
77.71	1471.0	1453.2
77.72	1494.0	1453.2
77.73	1537.0	1453.3
77.74	1505.0	1453.3
77.75	1520.0	1453.3
77.76	1572.0	1453.4
77.77	1601.0	1453.4
77.78	1542.0	1453.5
77.79	1550.0	1453.5
77.8	1540.0	1453.5
77.81	1521.0	1453.6
77.82	1572.0	1453.6
77.83	1572.0	1453.7
77.84	1566.0	1453.7
77.85	1621.0	1453.7
77.86	1591.0	1453.8
77.87	1587.0	1453.8
77.88	1580.0	1453.9
77.89	1580.0	1453.9
77.9	1644.0	1453.9
77.91	1592.0	1454.0
77.92	1519.0	1454.0
77.93	1622.0	1454.1
77.94	1644.0	1454.1
77.95	1625.0	1454.1
77.96	1629.0	1454.2
77.97	1668.0	1454.2
77.98	1711.0	1454.3
77.99	1720.0	1454.3
78.0	1713.0	1454.4
78.01	1686.0	1454.4
78.02	1753.0	1454.4
78.03	1730.0	1454.5
78.04	1685.0	1454.5
78.05	1700.0	1454.6
78.06	1737.0	1454.6
78.07	1751.0	1454.6
78.08	1720.0	1454.7
78.09	1711.0	1454.7
78.1	1689.0	1454.8
78.11	1691.0	1454.8
78.12	1620.0	1454.8
78.13	1634.0	1454.9
78.14	1661.0	1454.9
78.15	1666.0	1455.0
78.16	1658.0	1455.0
78.17	1658.0	1455.1
78.18	1637.0	1455.1
78.19	1637.0	1455.1
78.2	1660.0	1455.2
78.21	1671.0	1455.2
78.22	1645.0	1455.3
78.23	1638.0	1455.3
78.24	1708.0	1455.4
78.25	1695.0	1455.4
78.26	1626.0	1455.4
78.27	1611.0	1455.5
78.28	1640.0	1455.5
78.29	1637.0	1455.6
78.3	1637.0	1455.6
78.31	1645.0	1455.7
78.32	1648.0	1455.7
78.33	1641.0	1455.7
78.34	1559.0	1455.8
78.35	1561.0	1455.8
78.36	1564.0	1455.9
78.37	1546.0	1455.9
78.38	1587.0	1456.0
78.39	1543.0	1456.0
78.4	1611.0	1456.1
78.41	1602.0	1456.1
78.42	1585.0	1456.1
78.43	1593.0	1456.2
78.44	1569.0	1456.2
78.45	1602.0	1456.3
78.46	1575.0	1456.3
78.47	1582.0	1456.4
78.48	1592.0	1456.4
78.49	1596.0	1456.5
78.5	1587.0	1456.5
78.51	1618.0	1456.5
78.52	1609.0	1456.6
78.53	1601.0	1456.6
78.54	1552.0	1456.7
78.55	1528.0	1456.7
78.56	1531.0	1456.8
78.57	1555.0	1456.8
78.58	1571.0	1456.9
78.59	1611.0	1456.9
78.6	1597.0	1457.0
78.61	1604.0	1457.0
78.62	1582.0	1457.0
78.63	1542.0	1457.1
78.64	1554.0	1457.1
78.65	1515.0	1457.2
78.66	1548.0	1457.2
78.67	1563.0	1457.3
78.68	1553.0	1457.3
78.69	1586.0	1457.4
78.7	1554.0	1457.4
78.71	1574.0	1457.5
78.72	1592.0	1457.5
78.73	1644.0	1457.6
78.74	1625.0	1457.6
78.75	1605.0	1457.7
78.76	1613.0	1457.7
78.77	1643.0	1457.8
78.78	1600.0	1457.8
78.79	1638.0	1457.8
78.8	1621.0	1457.9
78.81	1611.0	1457.9
78.82	1570.0	1458.0
78.83	1635.0	1458.0
78.84	1666.0	1458.1
78.85	1629.0	1458.1
78.86	1672.0	1458.2
78.87	1661.0	1458.2
78.88	1661.0	1458.3
78.89	1635.0	1458.3
78.9	1657.0	1458.4
78.91	1708.0	1458.4
78.92	1718.0	1458.5
78.93	1738.0	1458.5
78.94	1728.0	1458.6
78.95	1726.0	1458.6
78.96	1714.0	1458.7
78.97	1739.0	1458.7
78.98	1786.0	1458.8
78.99	1851.0	1458.8
79.0	1811.0	1458.9
79.01	1849.0	1459.0
79.02	1802.0	1459.0
79.03	1842.0	1459.1
79.04	1901.0	1459.1
79.05	1911.0	1459.2
79.06	1958.0	1459.2
79.07	2025.0	1459.3
79.08	2048.0	1459.3
79.09	2066.0	1459.4
79.1	2084.0	1459.4
79.11	2134.0	1459.5
79.12	2144.0	1459.5
79.13	2205.0	1459.6
79.14	2237.0	1459.6
79.15	2219.0	1459.7
79.16	2180.0	1459.7
79.17	2167.0	1459.8
79.18	2197.0	1459.9
79.19	2179.0	1459.9
79.2	2178.0	1460.0
79.21	2228.0	1460.0
79.22	2198.0	1460.1
79.23	2172.0	1460.1
79.24	2170.0	1460.2
79.25	2152.0	1460.2
79.26	2131.0	1460.3
79.27	2198.0	1460.4
79.28	2174.0	1460.4
79.29	2109.0	1460.5
79.3	2066.0	1460.5
79.31	2064.0	1460.6
79.32	2032.0	1460.6
79.33	2034.0	1460.7
79.34	2047.0	1460.8
79.35	2005.0	1460.8
79.36	2036.0	1460.9
79.37	2052.0	1460.9
79.38	1985.0	1461.0
79.39	1966.0	1461.0
79.4	1993.0	1461.1
79.41	1966.0	1461.2
79.42	1938.0	1461.2
79.43	1938.0	1461.3
79.44	1928.0	1461.3
79.45	1988.0	1461.4
79.46	1928.0	1461.5
79.47	1914.0	1461.5
79.48	1861.0	1461.6
79.49	1842.0	1461.6
79.5	1820.0	1461.7
79.51	1755.0	1461.8
79.52	1752.0	1461.8
79.53	1781.0	1461.9
79.54	1713.0	1461.9
79.55	1701.0	1462.0
79.56	1713.0	1462.1
79.57	1722.0	1462.1
79.58	1718.0	1462.2
79.59	1735.0	1462.3
79.6	1722.0	1462.3
79.61	1667.0	1462.4
79.62	1685.0	1462.4
79.63	1686.0	1462.5
79.64	1627.0	1462.6
79.65	1626.0	1462.6
79.66	1636.0	1462.7
79.67	1631.0	1462.8
79.68	1615.0	1462.8
79.69	1609.0	1462.9
79.7	1556.0	1463.0
79.71	1577.0	1463.0
79.72	1592.0	1463.1
79.73	1602.0	1463.2
79.74	1591.0	1463.2
79.75	1595.0	1463.3
79.76	1558.0	1463.4
79.77	1568.0	1463.4
79.78	1591.0	1463.5
79.79	1568.0	1463.6
79.8	1577.0	1463.6
79.81	1580.0	1463.7
79.82	1541.0	1463.8
79.83	1531.0	1463.8
79.84	1533.0	1463.9
79.85	1565.0	1464.0
79.86	1593.0	1464.0
79.87	1559.0	1464.1
79.88	1534.0	1464.2
79.89	1520.0	1464.2
79.9	1502.0	1464.3
79.91	1514.0	1464.4
79.92	1532.0	1464.5
79.93	1567.0	1464.5
79.94	1548.0	1464.6
79.95	1519.0	1464.7
79.96	1555.0	1464.7
79.97	1571.0	1464.8
79.98	1524.0	1464.9
79.99	1496.0	1465.0
80.0	1538.0	1465.0
80.01	1560.0	1465.1
80.02	1551.0	1465.2
80.03	1553.0	1465.2
80.04	1505.0	1465.3
80.05	1512.0	1465.4
80.06	1516.0	1465.5
80.07	1532.0	1465.5
80.08	1541.0	1465.6
80.09	1534.0	1465.7
80.1	1494.0	1465.8
80.11	1522.0	1465.8
80.12	1544.0	1465.9
80.13	1561.0	1466.0
80.14	1543.0	1466.1
80.15	1544.0	1466.1
80.16	1598.0	1466.2
80.17	1578.0	1466.3
80.18	1543.0	1466.4
80.19	1577.0	1466.5
80.2	1576.0	1466.5
80.21	1571.0	1466.6
80.22	1540.0	1466.7
80.23	1520.0	1466.8
80.24	1523.0	1466.9
80.25	1581.0	1466.9
80.26	1592.0	1467.0
80.27	1558.0	1467.1
80.28	1572.0	1467.2
80.29	1553.0	1467.3
80.3	1547.0	1467.3
80.31	1562.0	1467.4
80.32	1590.0	1467.5
80.33	1588.0	1467.6
80.34	1556.0	1467.7
80.35	1582.0	1467.7
80.36	1573.0	1467.8
80.37	1534.0	1467.9
80.38	1568.0	1468.0
80.39	1574.0	1468.1
80.4	1569.0	1468.2
80.41	1614.0	1468.2
80.42	1609.0	1468.3
80.43	1642.0	1468.4
80.44	1615.0	1468.5
80.45	1596.0	1468.6
80.46	1597.0	1468.7
80.47	1613.0	1468.8
80.48	1609.0	1468.8
80.49	1624.0	1468.9
80.5	1636.0	1469.0
80.51	1621.0	1469.1
80.52	1608.0	1469.2
80.53	1624.0	1469.3
80.54	1641.0	1469.4
80.55	1667.0	1469.5
80.56	1649.0	1469.6
80.57	1613.0	1469.6
80.58	1650.0	1469.7
80.59	1682.0	1469.8
80.6	1713.0	1469.9
80.61	1723.0	1470.0
80.62	1718.0	1470.1
80.63	1728.0	1470.2
80.64	1715.0	1470.3
80.65	1728.0	1470.4
80.66	1781.0	1470.5
80.67	1769.0	1470.6
80.68	1851.0	1470.6
80.69	1891.0	1470.7
80.7	1854.0	1470.8
80.71	1914.0	1470.9
80.72	1884.0	1471.0
80.73	1873.0	1471.1
80.74	1887.0	1471.2
80.75	1926.0	1471.3
80.76	1972.0	1471.4
80.77	1949.0	1471.5
80.78	1954.0	1471.6
80.79	1993.0	1471.7
80.8	1990.0	1471.8
80.81	1972.0	1471.9
80.82	1927.0	1472.0
80.83	1880.0	1472.1
80.84	1894.0	1472.2
80.85	1872.0	1472.3
80.86	1868.0	1472.4
80.87	1853.0	1472.5
80.88	1868.0	1472.6
80.89	1858.0	1472.7
80.9	1886.0	1472.8
80.91	1843.0	1472.9
80.92	1869.0	1473.0
80.93	1776.0	1473.1
80.94	1838.0	1473.2
80.95	1848.0	1473.3
80.96	1797.0	1473.4
80.97	1777.0	1473.5
80.98	1830.0	1473.6
80.99	1853.0	1473.7
81.0	1841.0	1473.8
81.01	1834.0	1473.9
81.02	1815.0	1474.0
81.03	1795.0	1474.1
81.04	1783.0	1474.2
81.05	1737.0	1474.3
81.06	1700.0	1474.4
81.07	1700.0	1474.6
81.08	1741.0	1474.7
81.09	1718.0	1474.8
81.1	1731.0	1474.9
81.11	1664.0	1475.0
81.12	1710.0	1475.1
81.13	1702.0	1475.2
81.14	1650.0	1475.3
81.15	1708.0	1475.4
81.16	1656.0	1475.5
81.17	1585.0	1475.6
81.18	1605.0	1475.8
81.19	1615.0	1475.9
81.2	1649.0	1476.0
81.21	1663.0	1476.1
81.22	1622.0	1476.2
81.23	1602.0	1476.3
81.24	1582.0	1476.4
81.25	1599.0	1476.6
81.26	1607.0	1476.7
81.27	1579.0	1476.8
81.28	1558.0	1476.9
81.29	1556.0	1477.0
81.3	1561.0	1477.1
81.31	1557.0	1477.2
81.32	1573.0	1477.4
81.33	1534.0	1477.5
81.34	1546.0	1477.6
81.35	1482.0	1477.7
81.36	1524.0	1477.8
81.37	1556.0	1478.0
81.38	1583.0	1478.1
81.39	1600.0	1478.2
81.4	1547.0	1478.3
81.41	1552.0	1478.4
81.42	1533.0	1478.6
81.43	1533.0	1478.7
81.44	1568.0	1478.8
81.45	1563.0	1478.9
81.46	1510.0	1479.0
81.47	1500.0	1479.2
81.48	1567.0	1479.3
81.49	1546.0	1479.4
81.5	1536.0	1479.5
81.51	1519.0	1479.7
81.52	1498.0	1479.8
81.53	1521.0	1479.9
81.54	1507.0	1480.0
81.55	1530.0	1480.2
81.56	1513.0	1480.3
81.57	1523.0	1480.4
81.58	1533.0	1480.6
81.59	1517.0	1480.7
81.6	1512.0	1480.8
81.61	1525.0	1480.9
81.62	1535.0	1481.1
81.63	1536.0	1481.2
81.64	1484.0	1481.3
81.65	1468.0	1481.5
81.66	1521.0	1481.6
81.67	1561.0	1481.7
81.68	1547.0	1481.9
81.69	1505.0	1482.0
81.7	1449.0	1482.1
81.71	1488.0	1482.3
81.72	1535.0	1482.4
81.73	1490.0	1482.5
81.74	1477.0	1482.7
81.75	1478.0	1482.8
81.76	1528.0	1482.9
81.77	1553.0	1483.1
81.78	1502.0	1483.2
81.79	1511.0	1483.3
81.8	1575.0	1483.5
81.81	1520.0	1483.6
81.82	1503.0	1483.8
81.83	1495.0	1483.9
81.84	1510.0	1484.0
81.85	1518.0	1484.2
81.86	1525.0	1484.3
81.87	1515.0	1484.5
81.88	1524.0	1484.6
81.89	1525.0	1484.7
81.9	1502.0	1484.9
81.91	1478.0	1485.0
81.92	1525.0	1485.2
81.93	1521.0	1485.3
81.94	1525.0	1485.4
81.95	1565.0	1485.6
81.96	1580.0	1485.7
81.97	1522.0	1485.9
81.98	1507.0	1486.0
81.99	1508.0	1486.2
82.0	1532.0	1486.3
82.01	1489.0	1486.5
82.02	1538.0	1486.6
82.03	1528.0	1486.8
82.04	1526.0	1486.9
82.05	1550.0	1487.0
82.06	1557.0	1487.2
82.07	1549.0	1487.3
82.08	1498.0	1487.5
82.09	1494.0	1487.6
82.1	1504.0	1487.8
82.11	1501.0	1487.9
82.12	1480.0	1488.1
82.13	1475.0	1488.2
82.14	1512.0	1488.4
82.15	1492.0	1488.5
82.16	1498.0	1488.7
82.17	1496.0	1488.8
82.18	1530.0	1489.0
82.19	1560.0	1489.1
82.2	1492.0	1489.3
82.21	1477.0	1489.4
82.22	1519.0	1489.6
82.23	1505.0	1489.7
82.24	1460.0	1489.9
82.25	1479.0	1490.1
82.26	1540.0	1490.2
82.27	1538.0	1490.4
82.28	1499.0	1490.5
82.29	1525.0	1490.7
82.3	1549.0	1490.8
82.31	1512.0	1491.0
82.32	1493.0	1491.1
82.33	1520.0	1491.3
82.34	1492.0	1491.4
82.35	1522.0	1491.6
82.36	1510.0	1491.8
82.37	1554.0	1491.9
82.38	1526.0	1492.1
82.39	1504.0	1492.2
82.4	1509.0	1492.4
82.41	1539.0	1492.5
82.42	1513.0	1492.7
82.43	1512.0	1492.9
82.44	1493.0	1493.0
82.45	1508.0	1493.2
82.46	1550.0	1493.3
82.47	1558.0	1493.5
82.48	1529.0	1493.6
82.49	1479.0	1493.8
82.5	1462.0	1494.0
82.51	1468.0	1494.1
82.52	1472.0	1494.3
82.53	1553.0	1494.4
82.54	1545.0	1494.6
82.55	1516.0	1494.8
82.56	1489.0	1494.9
82.57	1473.0	1495.1
82.58	1545.0	1495.2
82.59	1537.0	1495.4
82.6	1492.0	1495.6
82.61	1504.0	1495.7
82.62	1549.0	1495.9
82.63	1518.0	1496.0
82.64	1508.0	1496.2
82.65	1492.0	1496.4
82.66	1515.0	1496.5
82.67	1536.0	1496.7
82.68	1558.0	1496.8
82.69	1553.0	1497.0
82.7	1551.0	1497.2
82.71	1520.0	1497.3
82.72	1497.0	1497.5
82.73	1524.0	1497.7
82.74	1560.0	1497.8
82.75	1540.0	1498.0
82.76	1570.0	1498.1
82.77	1591.0	1498.3
82.78	1555.0	1498.5
82.79	1535.0	1498.6
82.8	1556.0	1498.8
82.81	1577.0	1499.0
82.82	1552.0	1499.1
82.83	1574.0	1499.3
82.84	1552.0	1499.5
82.85	1559.0	1499.6
82.86	1567.0	1499.8
82.87	1570.0	1499.9
82.88	1542.0	1500.1
82.89	1588.0	1500.3
82.9	1529.0	1500.4
82.91	1543.0	1500.6
82.92	1561.0	1500.8
82.93	1542.0	1500.9
82.94	1563.0	1501.1
82.95	1573.0	1501.3
82.96	1529.0	1501.4
82.97	1553.0	1501.6
82.98	1513.0	1501.7
82.99	1514.0	1501.9
83.0	1530.0	1502.1
83.01	1518.0	1502.2
83.02	1515.0	1502.4
83.03	1516.0	1502.6
83.04	1517.0	1502.7
83.05	1531.0	1502.9
83.06	1536.0	1503.1
83.07	1556.0	1503.2
83.08	1569.0	1503.4
83.09	1585.0	1503.5
83.1	1520.0	1503.7
83.11	1504.0	1503.9
83.12	1520.0	1504.0
83.13	1524.0	1504.2
83.14	1562.0	1504.4
83.15	1562.0	1504.5
83.16	1527.0	1504.7
83.17	1489.0	1504.9
83.18	1534.0	1505.0
83.19	1545.0	1505.2
83.2	1574.0	1505.4
83.21	1576.0	1505.5
83.22	1529.0	1505.7
83.23	1526.0	1505.8
83.24	1508.0	1506.0
83.25	1536.0	1506.2
83.26	1577.0	1506.3
83.27	1551.0	1506.5
83.28	1531.0	1506.7
83.29	1501.0	1506.8
83.3	1508.0	1507.0
83.31	1521.0	1507.1
83.32	1503.0	1507.3
83.33	1517.0	1507.5
83.34	1547.0	1507.6
83.35	1578.0	1507.8
83.36	1518.0	1508.0
83.37	1491.0	1508.1
83.38	1511.0	1508.3
83.39	1514.0	1508.4
83.4	1512.0	1508.6
83.41	1499.0	1508.8
83.42	1508.0	1508.9
83.43	1504.0	1509.1
83.44	1502.0	1509.3
83.45	1511.0	1509.4
83.46	1504.0	1509.6
83.47	1520.0	1509.7
83.48	1531.0	1509.9
83.49	1514.0	1510.1
83.5	1497.0	1510.2
83.51	1508.0	1510.4
83.52	1489.0	1510.5
83.53	1485.0	1510.7
83.54	1523.0	1510.9
83.55	1513.0	1511.0
83.56	1505.0	1511.2
83.57	1539.0	1511.3
83.58	1554.0	1511.5
83.59	1511.0	1511.7
83.6	1506.0	1511.8
83.61	1494.0	1512.0
83.62	1516.0	1512.1
83.63	1499.0	1512.3
83.64	1476.0	1512.5
83.65	1461.0	1512.6
83.66	1486.0	1512.8
83.67	1515.0	1512.9
83.68	1508.0	1513.1
83.69	1532.0	1513.3
83.7	1542.0	1513.4
83.71	1530.0	1513.6
83.72	1511.0	1513.7
83.73	1500.0	1513.9
83.74	1519.0	1514.0
83.75	1552.0	1514.2
83.76	1528.0	1514.4
83.77	1496.0	1514.5
83.78	1485.0	1514.7
83.79	1502.0	1514.8
83.8	1520.0	1515.0
83.81	1474.0	1515.1
83.82	1463.0	1515.3
83.83	1485.0	1515.4
83.84	1538.0	1515.6
83.85	1513.0	1515.7
83.86	1481.0	1515.9
83.87	1505.0	1516.1
83.88	1564.0	1516.2
83.89	1577.0	1516.4
83.9	1529.0	1516.5
83.91	1495.0	1516.7
83.92	1507.0	1516.8
83.93	1520.0	1517.0
83.94	1535.0	1517.1
83.95	1545.0	1517.3
83.96	1518.0	1517.4
83.97	1520.0	1517.6
83.98	1553.0	1517.7
83.99	1524.0	1517.9
84.0	1456.0	1518.0
84.01	1482.0	1518.2
84.02	1491.0	1518.3
84.03	1516.0	1518.5
84.04	1531.0	1518.6
84.05	1496.0	1518.8
84.06	1507.0	1518.9
84.07	1504.0	1519.1
84.08	1474.0	1519.2
84.09	1416.0	1519.3
84.1	1475.0	1519.5
84.11	1496.0	1519.6
84.12	1490.0	1519.8
84.13	1496.0	1519.9
84.14	1513.0	1520.1
84.15	1525.0	1520.2
84.16	1463.0	1520.4
84.17	1478.0	1520.5
84.18	1489.0	1520.7
84.19	1521.0	1520.8
84.2	1536.0	1520.9
84.21	1507.0	1521.1
84.22	1494.0	1521.2
84.23	1528.0	1521.4
84.24	1529.0	1521.5
84.25	1535.0	1521.6
84.26	1553.0	1521.8
84.27	1488.0	1521.9
84.28	1507.0	1522.1
84.29	1513.0	1522.2
84.3	1525.0	1522.3
84.31	1543.0	1522.5
84.32	1528.0	1522.6
84.33	1505.0	1522.8
84.34	1502.0	1522.9
84.35	1525.0	1523.0
84.36	1567.0	1523.2
84.37	1562.0	1523.3
84.38	1534.0	1523.4
84.39	1526.0	1523.6
84.4	1519.0	1523.7
84.41	1571.0	1523.8
84.42	1526.0	1524.0
84.43	1506.0	1524.1
84.44	1566.0	1524.2
84.45	1588.0	1524.4
84.46	1526.0	1524.5
84.47	1529.0	1524.6
84.48	1556.0	1524.8
84.49	1557.0	1524.9
84.5	1547.0	1525.0
84.51	1565.0	1525.2
84.52	1561.0	1525.3
84.53	1540.0	1525.4
84.54	1518.0	1525.5
84.55	1526.0	1525.7
84.56	1554.0	1525.8
84.57	1516.0	1525.9
84.58	1526.0	1526.1
84.59	1534.0	1526.2
84.6	1565.0	1526.3
84.61	1550.0	1526.4
84.62	1520.0	1526.6
84.63	1537.0	1526.7
84.64	1573.0	1526.8
84.65	1598.0	1526.9
84.66	1568.0	1527.0
84.67	1560.0	1527.2
84.68	1544.0	1527.3
84.69	1564.0	1527.4
84.7	1564.0	1527.5
84.71	1622.0	1527.6
84.72	1602.0	1527.8
84.73	1626.0	1527.9
84.74	1628.0	1528.0
84.75	1603.0	1528.1
84.76	1590.0	1528.2
84.77	1587.0	1528.3
84.78	1602.0	1528.5
84.79	1588.0	1528.6
84.8	1590.0	1528.7
84.81	1592.0	1528.8
84.82	1582.0	1528.9
84.83	1604.0	1529.0
84.84	1626.0	1529.1
84.85	1580.0	1529.3
84.86	1573.0	1529.4
84.87	1580.0	1529.5
84.88	1611.0	1529.6
84.89	1629.0	1529.7
84.9	1620.0	1529.8
84.91	1602.0	1529.9
84.92	1618.0	1530.0
84.93	1614.0	1530.1
84.94	1618.0	1530.2
84.95	1608.0	1530.3
84.96	1588.0	1530.4
84.97	1621.0	1530.5
84.98	1628.0	1530.6
84.99	1644.0	1530.7
85.0	1647.0	1530.8
85.01	1644.0	1530.9
85.02	1658.0	1531.1
85.03	1635.0	1531.2
85.04	1659.0	1531.3
85.05	1661.0	1531.3
85.06	1624.0	1531.4
85.07	1663.0	1531.5
85.08	1657.0	1531.6
85.09	1631.0	1531.7
85.1	1657.0	1531.8
85.11	1654.0	1531.9
85.12	1684.0	1532.0
85.13	1659.0	1532.1
85.14	1716.0	1532.2
85.15	1727.0	1532.3
85.16	1708.0	1532.4
85.17	1695.0	1532.5
85.18	1686.0	1532.6
85.19	1714.0	1532.7
85.2	1695.0	1532.7
85.21	1663.0	1532.8
85.22	1667.0	1532.9
85.23	1697.0	1533.0
85.24	1696.0	1533.1
85.25	1683.0	1533.2
85.26	1681.0	1533.3
85.27	1683.0	1533.3
85.28	1687.0	1533.4
85.29	1686.0	1533.5
85.3	1642.0	1533.6
85.31	1678.0	1533.7
85.32	1718.0	1533.8
85.33	1694.0	1533.8
85.34	1659.0	1533.9
85.35	1693.0	1534.0
85.36	1703.0	1534.1
85.37	1678.0	1534.1
85.38	1659.0	1534.2
85.39	1654.0	1534.3
85.4	1666.0	1534.4
85.41	1674.0	1534.4
85.42	1663.0	1534.5
85.43	1687.0	1534.6
85.44	1674.0	1534.7
85.45	1634.0	1534.7
85.46	1611.0	1534.8
85.47	1606.0	1534.9
85.48	1637.0	1534.9
85.49	1653.0	1535.0
85.5	1648.0	1535.1
85.51	1618.0	1535.1
85.52	1638.0	1535.2
85.53	1647.0	1535.3
85.54	1613.0	1535.3
85.55	1591.0	1535.4
85.56	1625.0	1535.4
85.57	1584.0	1535.5
85.58	1595.0	1535.6
85.59	1610.0	1535.6
85.6	1545.0	1535.7
85.61	1590.0	1535.7
85.62	1575.0	1535.8
85.63	1570.0	1535.8
85.64	1574.0	1535.9
85.65	1568.0	1535.9
85.66	1562.0	1536.0
85.67	1526.0	1536.1
85.68	1531.0	1536.1
85.69	1569.0	1536.2
85.7	1565.0	1536.2
85.71	1542.0	1536.3
85.72	1545.0	1536.3
85.73	1544.0	1536.3
85.74	1576.0	1536.4
85.75	1540.0	1536.4
85.76	1557.0	1536.5
85.77	1627.0	1536.5
85.78	1618.0	1536.6
85.79	1550.0	1536.6
85.8	1546.0	1536.6
85.81	1555.0	1536.7
85.82	1540.0	1536.7
85.83	1533.0	1536.8
85.84	1554.0	1536.8
85.85	1528.0	1536.8
85.86	1517.0	1536.9
85.87	1529.0	1536.9
85.88	1548.0	1536.9
85.89	1562.0	1537.0
85.9	1594.0	1537.0
85.91	1578.0	1537.0
85.92	1537.0	1537.1
85.93	1557.0	1537.1
85.94	1543.0	1537.1
85.95	1513.0	1537.1
85.96	1518.0	1537.2
85.97	1571.0	1537.2
85.98	1568.0	1537.2
85.99	1549.0	1537.2
86.0	1551.0	1537.3
86.01	1572.0	1537.3
86.02	1580.0	1537.3
86.03	1566.0	1537.3
86.04	1543.0	1537.3
86.05	1551.0	1537.3
86.06	1570.0	1537.4
86.07	1580.0	1537.4
86.08	1573.0	1537.4
86.09	1582.0	1537.4
86.1	1597.0	1537.4
86.11	1595.0	1537.4
86.12	1573.0	1537.4
86.13	1554.0	1537.4
86.14	1574.0	1537.4
86.15	1554.0	1537.5
86.16	1560.0	1537.5
86.17	1566.0	1537.5
86.18	1555.0	1537.5
86.19	1571.0	1537.5
86.2	1566.0	1537.5
86.21	1582.0	1537.5
86.22	1590.0	1537.5
86.23	1585.0	1537.5
86.24	1566.0	1537.5
86.25	1593.0	1537.5
86.26	1618.0	1537.5
86.27	1603.0	1537.5
86.28	1576.0	1537.4
86.29	1598.0	1537.4
86.3	1575.0	1537.4
86.31	1566.0	1537.4
86.32	1545.0	1537.4
86.33	1548.0	1537.4
86.34	1588.0	1537.4
86.35	1604.0	1537.4
86.36	1618.0	1537.3
86.37	1615.0	1537.3
86.38	1635.0	1537.3
86.39	1552.0	1537.3
86.4	1494.0	1537.3
86.41	1511.0	1537.3
86.42	1534.0	1537.2
86.43	1559.0	1537.2
86.44	1553.0	1537.2
86.45	1554.0	1537.2
86.46	1560.0	1537.1
86.47	1592.0	1537.1
86.48	1615.0	1537.1
86.49	1610.0	1537.0
86.5	1556.0	1537.0
86.51	1552.0	1537.0
86.52	1564.0	1536.9
86.53	1552.0	1536.9
86.54	1532.0	1536.9
86.55	1504.0	1536.8
86.56	1506.0	1536.8
86.57	1584.0	1536.8
86.58	1562.0	1536.7
86.59	1563.0	1536.7
86.6	1604.0	1536.6
86.61	1557.0	1536.6
86.62	1586.0	1536.6
86.63	1603.0	1536.5
86.64	1574.0	1536.5
86.65	1588.0	1536.4
86.66	1586.0	1536.4
86.67	1601.0	1536.3
86.68	1567.0	1536.3
86.69	1558.0	1536.2
86.7	1543.0	1536.2
86.71	1572.0	1536.1
86.72	1568.0	1536.1
86.73	1559.0	1536.0
86.74	1558.0	1536.0
86.75	1566.0	1535.9
86.76	1538.0	1535.8
86.77	1515.0	1535.8
86.78	1550.0	1535.7
86.79	1574.0	1535.7
86.8	1548.0	1535.6
86.81	1523.0	1535.5
86.82	1562.0	1535.5
86.83	1584.0	1535.4
86.84	1567.0	1535.4
86.85	1573.0	1535.3
86.86	1594.0	1535.2
86.87	1621.0	1535.2
86.88	1569.0	1535.1
86.89	1549.0	1535.0
86.9	1556.0	1534.9
86.91	1540.0	1534.9
86.92	1550.0	1534.8
86.93	1532.0	1534.7
86.94	1539.0	1534.7
86.95	1577.0	1534.6
86.96	1578.0	1534.5
86.97	1571.0	1534.4
86.98	1555.0	1534.4
86.99	1517.0	1534.3
87.0	1578.0	1534.2
87.01	1598.0	1534.1
87.02	1614.0	1534.0
87.03	1595.0	1534.0
87.04	1565.0	1533.9
87.05	1525.0	1533.8
87.06	1561.0	1533.7
87.07	1508.0	1533.6
87.08	1557.0	1533.5
87.09	1615.0	1533.5
87.1	1593.0	1533.4
87.11	1551.0	1533.3
87.12	1530.0	1533.2
87.13	1546.0	1533.1
87.14	1510.0	1533.0
87.15	1498.0	1532.9
87.16	1566.0	1532.8
87.17	1577.0	1532.7
87.18	1555.0	1532.6
87.19	1570.0	1532.5
87.2	1563.0	1532.5
87.21	1560.0	1532.4
87.22	1567.0	1532.3
87.23	1580.0	1532.2
87.24	1577.0	1532.1
87.25	1580.0	1532.0
87.26	1570.0	1531.9
87.27	1575.0	1531.8
87.28	1583.0	1531.7
87.29	1580.0	1531.6
87.3	1608.0	1531.5
87.31	1602.0	1531.4
87.32	1607.0	1531.3
87.33	1605.0	1531.2
87.34	1578.0	1531.0
87.35	1548.0	1530.9
87.36	1567.0	1530.8
87.37	1594.0	1530.7
87.38	1606.0	1530.6
87.39	1564.0	1530.5
87.4	1556.0	1530.4
87.41	1558.0	1530.3
87.42	1591.0	1530.2
87.43	1589.0	1530.1
87.44	1581.0	1530.0
87.45	1568.0	1529.9
87.46	1571.0	1529.7
87.47	1596.0	1529.6
87.48	1595.0	1529.5
87.49	1584.0	1529.4
87.5	1607.0	1529.3
87.51	1610.0	1529.2
87.52	1584.0	1529.0
87.53	1565.0	1528.9
87.54	1555.0	1528.8
87.55	1575.0	1528.7
87.56	1606.0	1528.6
87.57	1604.0	1528.5
87.58	1595.0	1528.3
87.59	1582.0	1528.2
87.6	1556.0	1528.1
87.61	1573.0	1528.0
87.62	1619.0	1527.8
87.63	1624.0	1527.7
87.64	1586.0	1527.6
87.65	1569.0	1527.5
87.66	1543.0	1527.3
87.67	1552.0	1527.2
87.68	1565.0	1527.1
87.69	1615.0	1527.0
87.7	1632.0	1526.8
87.71	1595.0	1526.7
87.72	1618.0	1526.6
87.73	1642.0	1526.5
87.74	1634.0	1526.3
87.75	1661.0	1526.2
87.76	1613.0	1526.1
87.77	1542.0	1525.9
87.78	1547.0	1525.8
87.79	1598.0	1525.7
87.8	1625.0	1525.5
87.81	1626.0	1525.4
87.82	1635.0	1525.3
87.83	1648.0	1525.1
87.84	1625.0	1525.0
87.85	1651.0	1524.9
87.86	1669.0	1524.7
87.87	1663.0	1524.6
87.88	1648.0	1524.5
87.89	1625.0	1524.3
87.9	1682.0	1524.2
87.91	1680.0	1524.1
87.92	1684.0	1523.9
87.93	1708.0	1523.8
87.94	1709.0	1523.6
87.95	1664.0	1523.5
87.96	1641.0	1523.4
87.97	1695.0	1523.2
87.98	1685.0	1523.1
87.99	1652.0	1522.9
88.0	1672.0	1522.8
88.01	1698.0	1522.7
88.02	1681.0	1522.5
88.03	1661.0	1522.4
88.04	1672.0	1522.2
88.05	1651.0	1522.1
88.06	1591.0	1521.9
88.07	1588.0	1521.8
88.08	1634.0	1521.7
88.09	1606.0	1521.5
88.1	1596.0	1521.4
88.11	1638.0	1521.2
88.12	1676.0	1521.1
88.13	1672.0	1520.9
88.14	1654.0	1520.8
88.15	1671.0	1520.6
88.16	1646.0	1520.5
88.17	1624.0	1520.3
88.18	1614.0	1520.2
88.19	1644.0	1520.0
88.2	1641.0	1519.9
88.21	1641.0	1519.7
88.22	1620.0	1519.6
88.23	1599.0	1519.4
88.24	1628.0	1519.3
88.25	1662.0	1519.1
88.26	1641.0	1519.0
88.27	1621.0	1518.8
88.28	1610.0	1518.7
88.29	1607.0	1518.5
88.3	1619.0	1518.4
88.31	1571.0	1518.2
88.32	1582.0	1518.1
88.33	1576.0	1517.9
88.34	1551.0	1517.8
88.35	1560.0	1517.6
88.36	1554.0	1517.5
88.37	1587.0	1517.3
88.38	1619.0	1517.2
88.39	1632.0	1517.0
88.4	1602.0	1516.9
88.41	1575.0	1516.7
88.42	1592.0	1516.6
88.43	1569.0	1516.4
88.44	1552.0	1516.2
88.45	1544.0	1516.1
88.46	1531.0	1515.9
88.47	1544.0	1515.8
88.48	1544.0	1515.6
88.49	1576.0	1515.5
88.5	1599.0	1515.3
88.51	1574.0	1515.2
88.52	1606.0	1515.0
88.53	1560.0	1514.8
88.54	1532.0	1514.7
88.55	1529.0	1514.5
88.56	1517.0	1514.4
88.57	1537.0	1514.2
88.58	1574.0	1514.1
88.59	1574.0	1513.9
88.6	1565.0	1513.7
88.61	1562.0	1513.6
88.62	1550.0	1513.4
88.63	1566.0	1513.3
88.64	1572.0	1513.1
88.65	1549.0	1512.9
88.66	1528.0	1512.8
88.67	1535.0	1512.6
88.68	1556.0	1512.5
88.69	1571.0	1512.3
88.7	1594.0	1512.2
88.71	1566.0	1512.0
88.72	1560.0	1511.8
88.73	1533.0	1511.7
88.74	1531.0	1511.5
88.75	1555.0	1511.4
88.76	1582.0	1511.2
88.77	1617.0	1511.0
88.78	1631.0	1510.9
88.79	1603.0	1510.7
88.8	1560.0	1510.6
88.81	1529.0	1510.4
88.82	1514.0	1510.2
88.83	1566.0	1510.1
88.84	1608.0	1509.9
88.85	1596.0	1509.8
88.86	1573.0	1509.6
88.87	1567.0	1509.4
88.88	1584.0	1509.3
88.89	1569.0	1509.1
88.9	1569.0	1509.0
88.91	1556.0	1508.8
88.92	1557.0	1508.6
88.93	1576.0	1508.5
88.94	1590.0	1508.3
88.95	1557.0	1508.2
88.96	1532.0	1508.0
88.97	1519.0	1507.8
88.98	1512.0	1507.7
88.99	1529.0	1507.5
89.0	1535.0	1507.4
89.01	1544.0	1507.2
89.02	1566.0	1507.0
89.03	1584.0	1506.9
89.04	1579.0	1506.7
89.05	1607.0	1506.6
89.06	1610.0	1506.4
89.07	1604.0	1506.2
89.08	1584.0	1506.1
89.09	1574.0	1505.9
89.1	1551.0	1505.8
89.11	1559.0	1505.6
89.12	1553.0	1505.4
89.13	1519.0	1505.3
89.14	1511.0	1505.1
89.15	1526.0	1505.0
89.16	1566.0	1504.8
89.17	1550.0	1504.6
89.18	1592.0	1504.5
89.19	1620.0	1504.3
89.2	1571.0	1504.2
89.21	1554.0	1504.0
89.22	1581.0	1503.8
89.23	1627.0	1503.7
89.24	1638.0	1503.5
89.25	1607.0	1503.4
89.26	1577.0	1503.2
89.27	1568.0	1503.1
89.28	1576.0	1502.9
89.29	1581.0	1502.7
89.3	1588.0	1502.6
89.31	1593.0	1502.4
89.32	1581.0	1502.3
89.33	1592.0	1502.1
89.34	1597.0	1502.0
89.35	1577.0	1501.8
89.36	1574.0	1501.6
89.37	1593.0	1501.5
89.38	1617.0	1501.3
89.39	1591.0	1501.2
89.4	1554.0	1501.0
89.41	1562.0	1500.9
89.42	1585.0	1500.7
89.43	1595.0	1500.6
89.44	1621.0	1500.4
89.45	1637.0	1500.3
89.46	1636.0	1500.1
89.47	1636.0	1499.9
89.48	1615.0	1499.8
89.49	1605.0	1499.6
89.5	1633.0	1499.5
89.51	1632.0	1499.3
89.52	1601.0	1499.2
89.53	1589.0	1499.0
89.54	1619.0	1498.9
89.55	1623.0	1498.7
89.56	1613.0	1498.6
89.57	1618.0	1498.4
89.58	1624.0	1498.3
89.59	1616.0	1498.1
89.6	1621.0	1498.0
89.61	1636.0	1497.8
89.62	1669.0	1497.7
89.63	1687.0	1497.5
89.64	1669.0	1497.4
89.65	1622.0	1497.2
89.66	1625.0	1497.1
89.67	1632.0	1496.9
89.68	1631.0	1496.8
89.69	1649.0	1496.6
89.7	1672.0	1496.5
89.71	1677.0	1496.3
89.72	1684.0	1496.2
89.73	1676.0	1496.0
89.74	1639.0	1495.9
89.75	1576.0	1495.8
89.76	1563.0	1495.6
89.77	1608.0	1495.5
89.78	1637.0	1495.3
89.79	1639.0	1495.2
89.8	1630.0	1495.0
89.81	1612.0	1494.9
89.82	1613.0	1494.7
89.83	1624.0	1494.6
89.84	1641.0	1494.5
89.85	1619.0	1494.3
89.86	1622.0	1494.2
89.87	1624.0	1494.0
89.88	1617.0	1493.9
89.89	1649.0	1493.8
89.9	1653.0	1493.6
89.91	1593.0	1493.5
89.92	1558.0	1493.3
89.93	1586.0	1493.2
89.94	1606.0	1493.1
89.95	1609.0	1492.9
89.96	1626.0	1492.8
89.97	1627.0	1492.7
89.98	1623.0	1492.5
89.99	1622.0	1492.4
90.0	1620.0	1492.3
90.01	1611.0	1492.1
90.02	1578.0	1492.0
90.03	1603.0	1491.8
90.04	1617.0	1491.7
90.05	1572.0	1491.6
90.06	1557.0	1491.5
90.07	1604.0	1491.3
90.08	1621.0	1491.2
90.09	1564.0	1491.1
90.1	1518.0	1490.9
90.11	1534.0	1490.8
90.12	1538.0	1490.7
90.13	1539.0	1490.5
90.14	1567.0	1490.4
90.15	1568.0	1490.3
90.16	1563.0	1490.2
90.17	1567.0	1490.0
90.18	1577.0	1489.9
90.19	1578.0	1489.8
90.2	1581.0	1489.7
90.21	1552.0	1489.5
90.22	1513.0	1489.4
90.23	1531.0	1489.3
90.24	1534.0	1489.2
90.25	1540.0	1489.0
90.26	1552.0	1488.9
90.27	1551.0	1488.8
90.28	1540.0	1488.7
90.29	1531.0	1488.6
90.3	1554.0	1488.4
90.31	1586.0	1488.3
90.32	1594.0	1488.2
90.33	1579.0	1488.1
90.34	1541.0	1488.0
90.35	1543.0	1487.9
90.36	1578.0	1487.7
90.37	1586.0	1487.6
90.38	1586.0	1487.5
90.39	1566.0	1487.4
90.4	1572.0	1487.3
90.41	1572.0	1487.2
90.42	1565.0	1487.1
90.43	1572.0	1487.0
90.44	1546.0	1486.8
90.45	1543.0	1486.7
90.46	1563.0	1486.6
90.47	1559.0	1486.5
90.48	1544.0	1486.4
90.49	1510.0	1486.3
90.5	1499.0	1486.2
90.51	1488.0	1486.1
90.52	1480.0	1486.0
90.53	1500.0	1485.9
90.54	1509.0	1485.8
90.55	1508.0	1485.7
90.56	1526.0	1485.6
90.57	1549.0	1485.5
90.58	1541.0	1485.4
90.59	1539.0	1485.3
90.6	1539.0	1485.2
90.61	1538.0	1485.1
90.62	1537.0	1485.0
90.63	1549.0	1484.9
90.64	1581.0	1484.8
90.65	1567.0	1484.7
90.66	1554.0	1484.6
90.67	1544.0	1484.5
90.68	1529.0	1484.4
90.69	1528.0	1484.3
90.7	1537.0	1484.2
90.71	1533.0	1484.1
90.72	1544.0	1484.0
90.73	1553.0	1484.0
90.74	1551.0	1483.9
90.75	1568.0	1483.8
90.76	1550.0	1483.7
90.77	1503.0	1483.6
90.78	1496.0	1483.5
90.79	1498.0	1483.4
90.8	1468.0	1483.4
90.81	1466.0	1483.3
90.82	1503.0	1483.2
90.83	1521.0	1483.1
90.84	1534.0	1483.0
90.85	1541.0	1483.0
90.86	1532.0	1482.9
90.87	1566.0	1482.8
90.88	1566.0	1482.7
90.89	1537.0	1482.6
90.9	1556.0	1482.6
90.91	1524.0	1482.5
90.92	1497.0	1482.4
90.93	1514.0	1482.3
90.94	1513.0	1482.3
90.95	1500.0	1482.2
90.96	1498.0	1482.1
90.97	1502.0	1482.1
90.98	1517.0	1482.0
90.99	1533.0	1481.9
91.0	1531.0	1481.9
91.01	1522.0	1481.8
91.02	1507.0	1481.7
91.03	1516.0	1481.7
91.04	1532.0	1481.6
91.05	1512.0	1481.5
91.06	1508.0	1481.5
91.07	1518.0	1481.4
91.08	1511.0	1481.4
91.09	1534.0	1481.3
91.1	1536.0	1481.2
91.11	1558.0	1481.2
91.12	1575.0	1481.1
91.13	1538.0	1481.1
91.14	1526.0	1481.0
91.15	1526.0	1480.9
91.16	1538.0	1480.9
91.17	1516.0	1480.8
91.18	1503.0	1480.8
91.19	1527.0	1480.7
91.2	1537.0	1480.7
91.21	1518.0	1480.6
91.22	1483.0	1480.6
91.23	1500.0	1480.5
91.24	1534.0	1480.5
91.25	1516.0	1480.4
91.26	1517.0	1480.4
91.27	1530.0	1480.3
91.28	1501.0	1480.3
91.29	1513.0	1480.3
91.3	1515.0	1480.2
91.31	1512.0	1480.2
91.32	1519.0	1480.1
91.33	1538.0	1480.1
91.34	1546.0	1480.0
91.35	1546.0	1480.0
91.36	1588.0	1480.0
91.37	1584.0	1479.9
91.38	1540.0	1479.9
91.39	1525.0	1479.8
91.4	1541.0	1479.8
91.41	1556.0	1479.8
91.42	1547.0	1479.7
91.43	1546.0	1479.7
91.44	1560.0	1479.7
91.45	1563.0	1479.6
91.46	1569.0	1479.6
91.47	1568.0	1479.6
91.48	1529.0	1479.5
91.49	1500.0	1479.5
91.5	1499.0	1479.5
91.51	1500.0	1479.4
91.52	1527.0	1479.4
91.53	1552.0	1479.4
91.54	1567.0	1479.4
91.55	1559.0	1479.3
91.56	1507.0	1479.3
91.57	1497.0	1479.3
91.58	1519.0	1479.3
91.59	1524.0	1479.2
91.6	1519.0	1479.2
91.61	1535.0	1479.2
91.62	1541.0	1479.2
91.63	1556.0	1479.1
91.64	1562.0	1479.1
91.65	1516.0	1479.1
91.66	1483.0	1479.1
91.67	1504.0	1479.1
91.68	1539.0	1479.0
91.69	1554.0	1479.0
91.7	1554.0	1479.0
91.71	1544.0	1479.0
91.72	1573.0	1479.0
91.73	1576.0	1479.0
91.74	1533.0	1479.0
91.75	1532.0	1478.9
91.76	1539.0	1478.9
91.77	1541.0	1478.9
91.78	1561.0	1478.9
91.79	1560.0	1478.9
91.8	1525.0	1478.9
91.81	1511.0	1478.9
91.82	1538.0	1478.9
91.83	1550.0	1478.9
91.84	1509.0	1478.8
91.85	1522.0	1478.8
91.86	1578.0	1478.8
91.87	1571.0	1478.8
91.88	1553.0	1478.8
91.89	1541.0	1478.8
91.9	1535.0	1478.8
91.91	1532.0	1478.8
91.92	1509.0	1478.8
91.93	1500.0	1478.8
91.94	1523.0	1478.8
91.95	1520.0	1478.8
91.96	1485.0	1478.8
91.97	1479.0	1478.8
91.98	1506.0	1478.8
91.99	1537.0	1478.8
92.0	1558.0	1478.8
92.01	1552.0	1478.8
92.02	1522.0	1478.8
92.03	1521.0	1478.8
92.04	1532.0	1478.8
92.05	1543.0	1478.8
92.06	1526.0	1478.8
92.07	1498.0	1478.8
92.08	1514.0	1478.8
92.09	1540.0	1478.9
92.1	1552.0	1478.9
92.11	1555.0	1478.9
92.12	1576.0	1478.9
92.13	1584.0	1478.9
92.14	1548.0	1478.9
92.15	1528.0	1478.9
92.16	1530.0	1478.9
92.17	1520.0	1478.9
92.18	1516.0	1478.9
92.19	1522.0	1479.0
92.2	1532.0	1479.0
92.21	1548.0	1479.0
92.22	1553.0	1479.0
92.23	1541.0	1479.0
92.24	1516.0	1479.0
92.25	1521.0	1479.0
92.26	1539.0	1479.1
92.27	1551.0	1479.1
92.28	1526.0	1479.1
92.29	1492.0	1479.1
92.3	1517.0	1479.1
92.31	1539.0	1479.2
92.32	1528.0	1479.2
92.33	1528.0	1479.2
92.34	1505.0	1479.2
92.35	1505.0	1479.2
92.36	1551.0	1479.3
92.37	1540.0	1479.3
92.38	1507.0	1479.3
92.39	1506.0	1479.3
92.4	1516.0	1479.3
92.41	1536.0	1479.4
92.42	1530.0	1479.4
92.43	1515.0	1479.4
92.44	1525.0	1479.5
92.45	1559.0	1479.5
92.46	1550.0	1479.5
92.47	1526.0	1479.5
92.48	1528.0	1479.6
92.49	1541.0	1479.6
92.5	1535.0	1479.6
92.51	1519.0	1479.6
92.52	1512.0	1479.7
92.53	1513.0	1479.7
92.54	1513.0	1479.7
92.55	1526.0	1479.8
92.56	1540.0	1479.8
92.57	1530.0	1479.8
92.58	1543.0	1479.9
92.59	1556.0	1479.9
92.6	1562.0	1479.9
92.61	1554.0	1480.0
92.62	1527.0	1480.0
92.63	1503.0	1480.0
92.64	1496.0	1480.1
92.65	1496.0	1480.1
92.66	1511.0	1480.2
92.67	1525.0	1480.2
92.68	1510.0	1480.2
92.69	1526.0	1480.3
92.7	1544.0	1480.3
92.71	1532.0	1480.3
92.72	1538.0	1480.4
92.73	1542.0	1480.4
92.74	1530.0	1480.5
92.75	1514.0	1480.5
92.76	1509.0	1480.5
92.77	1540.0	1480.6
92.78	1525.0	1480.6
92.79	1509.0	1480.7
92.8	1551.0	1480.7
92.81	1563.0	1480.8
92.82	1557.0	1480.8
92.83	1547.0	1480.8
92.84	1533.0	1480.9
92.85	1533.0	1480.9
92.86	1532.0	1481.0
92.87	1511.0	1481.0
92.88	1503.0	1481.1
92.89	1517.0	1481.1
92.9	1532.0	1481.2
92.91	1536.0	1481.2
92.92	1537.0	1481.3
92.93	1537.0	1481.3
92.94	1533.0	1481.4
92.95	1551.0	1481.4
92.96	1554.0	1481.5
92.97	1526.0	1481.5
92.98	1512.0	1481.6
92.99	1541.0	1481.6
93.0	1552.0	1481.7
93.01	1540.0	1481.7
93.02	1541.0	1481.8
93.03	1547.0	1481.8
93.04	1531.0	1481.9
93.05	1537.0	1481.9
93.06	1567.0	1482.0
93.07	1566.0	1482.0
93.08	1554.0	1482.1
93.09	1544.0	1482.1
93.1	1581.0	1482.2
93.11	1609.0	1482.2
93.12	1585.0	1482.3
93.13	1564.0	1482.4
93.14	1568.0	1482.4
93.15	1567.0	1482.5
93.16	1549.0	1482.5
93.17	1516.0	1482.6
93.18	1519.0	1482.6
93.19	1561.0	1482.7
93.2	1592.0	1482.8
93.21	1573.0	1482.8
93.22	1565.0	1482.9
93.23	1605.0	1482.9
93.24	1629.0	1483.0
93.25	1600.0	1483.1
93.26	1584.0	1483.1
93.27	1581.0	1483.2
93.28	1578.0	1483.2
93.29	1588.0	1483.3
93.3	1581.0	1483.4
93.31	1575.0	1483.4
93.32	1572.0	1483.5
93.33	1568.0	1483.6
93.34	1577.0	1483.6
93.35	1564.0	1483.7
93.36	1569.0	1483.8
93.37	1583.0	1483.8
93.38	1598.0	1483.9
93.39	1611.0	1483.9
93.4	1606.0	1484.0
93.41	1615.0	1484.1
93.42	1614.0	1484.1
93.43	1613.0	1484.2
93.44	1628.0	1484.3
93.45	1597.0	1484.3
93.46	1538.0	1484.4
93.47	1571.0	1484.5
93.48	1612.0	1484.5
93.49	1593.0	1484.6
93.5	1572.0	1484.7
93.51	1557.0	1484.8
93.52	1556.0	1484.8
93.53	1542.0	1484.9
93.54	1553.0	1485.0
93.55	1590.0	1485.0
93.56	1574.0	1485.1
93.57	1557.0	1485.2
93.58	1587.0	1485.2
93.59	1605.0	1485.3
93.6	1613.0	1485.4
93.61	1601.0	1485.5
93.62	1576.0	1485.5
93.63	1550.0	1485.6
93.64	1560.0	1485.7
93.65	1545.0	1485.7
93.66	1550.0	1485.8
93.67	1589.0	1485.9
93.68	1575.0	1486.0
93.69	1501.0	1486.0
93.7	1527.0	1486.1
93.71	1597.0	1486.2
93.72	1603.0	1486.3
93.73	1576.0	1486.3
93.74	1591.0	1486.4
93.75	1602.0	1486.5
93.76	1565.0	1486.6
93.77	1558.0	1486.6
93.78	1583.0	1486.7
93.79	1584.0	1486.8
93.8	1612.0	1486.9
93.81	1608.0	1486.9
93.82	1567.0	1487.0
93.83	1549.0	1487.1
93.84	1566.0	1487.2
93.85	1612.0	1487.2
93.86	1594.0	1487.3
93.87	1531.0	1487.4
93.88	1522.0	1487.5
93.89	1550.0	1487.6
93.9	1539.0	1487.6
93.91	1564.0	1487.7
93.92	1577.0	1487.8
93.93	1557.0	1487.9
93.94	1559.0	1488.0
93.95	1547.0	1488.0
93.96	1515.0	1488.1
93.97	1525.0	1488.2
93.98	1561.0	1488.3
93.99	1576.0	1488.4
94.0	1575.0	1488.4
94.01	1577.0	1488.5
94.02	1566.0	1488.6
94.03	1522.0	1488.7
94.04	1548.0	1488.8
94.05	1564.0	1488.8
94.06	1554.0	1488.9
94.07	1562.0	1489.0
94.08	1535.0	1489.1
94.09	1511.0	1489.2
94.1	1551.0	1489.3
94.11	1554.0	1489.3
94.12	1524.0	1489.4
94.13	1539.0	1489.5
94.14	1579.0	1489.6
94.15	1525.0	1489.7
94.16	1496.0	1489.8
94.17	1526.0	1489.8
94.18	1539.0	1489.9
94.19	1523.0	1490.0
94.2	1534.0	1490.1
94.21	1549.0	1490.2
94.22	1532.0	1490.3
94.23	1539.0	1490.3
94.24	1524.0	1490.4
94.25	1549.0	1490.5
94.26	1562.0	1490.6
94.27	1557.0	1490.7
94.28	1550.0	1490.8
94.29	1552.0	1490.8
94.3	1542.0	1490.9
94.31	1490.0	1491.0
94.32	1513.0	1491.1
94.33	1552.0	1491.2
94.34	1563.0	1491.3
94.35	1538.0	1491.4
94.36	1518.0	1491.5
94.37	1539.0	1491.5
94.38	1526.0	1491.6
94.39	1520.0	1491.7
94.4	1539.0	1491.8
94.41	1551.0	1491.9
94.42	1551.0	1492.0
94.43	1583.0	1492.1
94.44	1583.0	1492.1
94.45	1577.0	1492.2
94.46	1590.0	1492.3
94.47	1562.0	1492.4
94.48	1510.0	1492.5
94.49	1536.0	1492.6
94.5	1560.0	1492.7
94.51	1558.0	1492.8
94.52	1547.0	1492.8
94.53	1551.0	1492.9
94.54	1542.0	1493.0
94.55	1567.0	1493.1
94.56	1560.0	1493.2
94.57	1547.0	1493.3
94.58	1536.0	1493.4
94.59	1530.0	1493.5
94.6	1540.0	1493.6
94.61	1575.0	1493.6
94.62	1573.0	1493.7
94.63	1559.0	1493.8
94.64	1555.0	1493.9
94.65	1531.0	1494.0
94.66	1524.0	1494.1
94.67	1516.0	1494.2
94.68	1497.0	1494.3
94.69	1498.0	1494.4
94.7	1519.0	1494.4
94.71	1510.0	1494.5
94.72	1551.0	1494.6
94.73	1564.0	1494.7
94.74	1550.0	1494.8
94.75	1550.0	1494.9
94.76	1555.0	1495.0
94.77	1527.0	1495.1
94.78	1526.0	1495.2
94.79	1543.0	1495.3
94.8	1531.0	1495.3
94.81	1526.0	1495.4
94.82	1535.0	1495.5
94.83	1574.0	1495.6
94.84	1565.0	1495.7
94.85	1530.0	1495.8
94.86	1546.0	1495.9
94.87	1532.0	1496.0
94.88	1536.0	1496.1
94.89	1536.0	1496.2
94.9	1564.0	1496.2
94.91	1575.0	1496.3
94.92	1541.0	1496.4
94.93	1552.0	1496.5
94.94	1533.0	1496.6
94.95	1525.0	1496.7
94.96	1517.0	1496.8
94.97	1532.0	1496.9
94.98	1523.0	1497.0
94.99	1544.0	1497.1
95.0	1553.0	1497.1
95.01	1580.0	1497.2
95.02	1584.0	1497.3
95.03	1546.0	1497.4
95.04	1549.0	1497.5
95.05	1538.0	1497.6
95.06	1538.0	1497.7
95.07	1578.0	1497.8
95.08	1577.0	1497.9
95.09	1553.0	1498.0
95.1	1539.0	1498.0
95.11	1542.0	1498.1
95.12	1530.0	1498.2
95.13	1572.0	1498.3
95.14	1583.0	1498.4
95.15	1546.0	1498.5
95.16	1536.0	1498.6
95.17	1538.0	1498.7
95.18	1527.0	1498.8
95.19	1524.0	1498.9
95.2	1518.0	1498.9
95.21	1517.0	1499.0
95.22	1516.0	1499.1
95.23	1579.0	1499.2
95.24	1561.0	1499.3
95.25	1513.0	1499.4
95.26	1533.0	1499.5
95.27	1545.0	1499.6
95.28	1539.0	1499.7
95.29	1533.0	1499.7
95.3	1574.0	1499.8
95.31	1593.0	1499.9
95.32	1565.0	1500.0
95.33	1587.0	1500.1
95.34	1556.0	1500.2
95.35	1584.0	1500.3
95.36	1586.0	1500.4
95.37	1531.0	1500.5
95.38	1512.0	1500.5
95.39	1532.0	1500.6
95.4	1525.0	1500.7
95.41	1538.0	1500.8
95.42	1550.0	1500.9
95.43	1561.0	1501.0
95.44	1579.0	1501.1
95.45	1582.0	1501.2
95.46	1547.0	1501.3
95.47	1547.0	1501.3
95.48	1564.0	1501.4
95.49	1539.0	1501.5
95.5	1552.0	1501.6
95.51	1571.0	1501.7
95.52	1560.0	1501.8
95.53	1560.0	1501.9
95.54	1560.0	1502.0
95.55	1584.0	1502.0
95.56	1612.0	1502.1
95.57	1621.0	1502.2
95.58	1589.0	1502.3
95.59	1566.0	1502.4
95.6	1539.0	1502.5
95.61	1548.0	1502.6
95.62	1591.0	1502.6
95.63	1561.0	1502.7
95.64	1552.0	1502.8
95.65	1544.0	1502.9
95.66	1562.0	1503.0
95.67	1562.0	1503.1
95.68	1585.0	1503.2
95.69	1598.0	1503.2
95.7	1580.0	1503.3
95.71	1562.0	1503.4
95.72	1575.0	1503.5
95.73	1551.0	1503.6
95.74	1578.0	1503.7
95.75	1569.0	1503.7
95.76	1570.0	1503.8
95.77	1575.0	1503.9
95.78	1558.0	1504.0
95.79	1538.0	1504.1
95.8	1542.0	1504.2
95.81	1545.0	1504.3
95.82	1575.0	1504.3
95.83	1581.0	1504.4
95.84	1558.0	1504.5
95.85	1575.0	1504.6
95.86	1558.0	1504.7
95.87	1546.0	1504.7
95.88	1572.0	1504.8
95.89	1626.0	1504.9
95.9	1634.0	1505.0
95.91	1626.0	1505.1
95.92	1611.0	1505.2
95.93	1592.0	1505.2
95.94	1591.0	1505.3
95.95	1583.0	1505.4
95.96	1598.0	1505.5
95.97	1600.0	1505.6
95.98	1564.0	1505.6
95.99	1542.0	1505.7
96.0	1550.0	1505.8
96.01	1537.0	1505.9
96.02	1544.0	1506.0
96.03	1580.0	1506.0
96.04	1620.0	1506.1
96.05	1613.0	1506.2
96.06	1600.0	1506.3
96.07	1581.0	1506.4
96.08	1637.0	1506.4
96.09	1606.0	1506.5
96.1	1554.0	1506.6
96.11	1562.0	1506.7
96.12	1561.0	1506.7
96.13	1544.0	1506.8
96.14	1546.0	1506.9
96.15	1557.0	1507.0
96.16	1594.0	1507.0
96.17	1580.0	1507.1
96.18	1582.0	1507.2
96.19	1562.0	1507.3
96.2	1560.0	1507.3
96.21	1590.0	1507.4
96.22	1615.0	1507.5
96.23	1567.0	1507.6
96.24	1524.0	1507.6
96.25	1536.0	1507.7
96.26	1542.0	1507.8
96.27	1576.0	1507.9
96.28	1581.0	1507.9
96.29	1568.0	1508.0
96.3	1598.0	1508.1
96.31	1598.0	1508.2
96.32	1581.0	1508.2
96.33	1547.0	1508.3
96.34	1548.0	1508.4
96.35	1547.0	1508.4
96.36	1533.0	1508.5
96.37	1540.0	1508.6
96.38	1579.0	1508.7
96.39	1573.0	1508.7
96.4	1602.0	1508.8
96.41	1620.0	1508.9
96.42	1567.0	1508.9
96.43	1547.0	1509.0
96.44	1585.0	1509.1
96.45	1560.0	1509.1
96.46	1484.0	1509.2
96.47	1504.0	1509.3
96.48	1527.0	1509.4
96.49	1566.0	1509.4
96.5	1566.0	1509.5
96.51	1559.0	1509.6
96.52	1545.0	1509.6
96.53	1538.0	1509.7
96.54	1524.0	1509.8
96.55	1514.0	1509.8
96.56	1528.0	1509.9
96.57	1576.0	1509.9
96.58	1535.0	1510.0
96.59	1575.0	1510.1
96.6	1614.0	1510.1
96.61	1598.0	1510.2
96.62	1589.0	1510.3
96.63	1607.0	1510.3
96.64	1580.0	1510.4
96.65	1564.0	1510.5
96.66	1565.0	1510.5
96.67	1564.0	1510.6
96.68	1578.0	1510.6
96.69	1565.0	1510.7
96.7	1563.0	1510.8
96.71	1584.0	1510.8
96.72	1561.0	1510.9
96.73	1543.0	1510.9
96.74	1557.0	1511.0
96.75	1596.0	1511.1
96.76	1595.0	1511.1
96.77	1595.0	1511.2
96.78	1534.0	1511.2
96.79	1519.0	1511.3
96.8	1550.0	1511.3
96.81	1589.0	1511.4
96.82	1577.0	1511.5
96.83	1557.0	1511.5
96.84	1539.0	1511.6
96.85	1539.0	1511.6
96.86	1543.0	1511.7
96.87	1534.0	1511.7
96.88	1567.0	1511.8
96.89	1628.0	1511.8
96.9	1627.0	1511.9
96.91	1569.0	1512.0
96.92	1537.0	1512.0
96.93	1536.0	1512.1
96.94	1571.0	1512.1
96.95	1601.0	1512.2
96.96	1580.0	1512.2
96.97	1540.0	1512.3
96.98	1553.0	1512.3
96.99	1584.0	1512.4
97.0	1554.0	1512.4
97.01	1563.0	1512.5
97.02	1572.0	1512.5
97.03	1582.0	1512.6
97.04	1546.0	1512.6
97.05	1528.0	1512.7
97.06	1587.0	1512.7
97.07	1567.0	1512.7
97.08	1564.0	1512.8
97.09	1584.0	1512.8
97.1	1571.0	1512.9
97.11	1557.0	1512.9
97.12	1557.0	1513.0
97.13	1557.0	1513.0
97.14	1604.0	1513.1
97.15	1596.0	1513.1
97.16	1558.0	1513.1
97.17	1530.0	1513.2
97.18	1504.0	1513.2
97.19	1481.0	1513.3
97.2	1548.0	1513.3
97.21	1543.0	1513.4
97.22	1534.0	1513.4
97.23	1570.0	1513.4
97.24	1556.0	1513.5
97.25	1551.0	1513.5
97.26	1540.0	1513.6
97.27	1567.0	1513.6
97.28	1626.0	1513.6
97.29	1589.0	1513.7
97.3	1561.0	1513.7
97.31	1559.0	1513.7
97.32	1562.0	1513.8
97.33	1553.0	1513.8
97.34	1557.0	1513.8
97.35	1551.0	1513.9
97.36	1528.0	1513.9
97.37	1528.0	1513.9
97.38	1555.0	1514.0
97.39	1595.0	1514.0
97.4	1544.0	1514.0
97.41	1524.0	1514.1
97.42	1554.0	1514.1
97.43	1597.0	1514.1
97.44	1571.0	1514.2
97.45	1574.0	1514.2
97.46	1551.0	1514.2
97.47	1557.0	1514.3
97.48	1593.0	1514.3
97.49	1587.0	1514.3
97.5	1536.0	1514.4
97.51	1560.0	1514.4
97.52	1570.0	1514.4
97.53	1545.0	1514.4
97.54	1562.0	1514.5
97.55	1619.0	1514.5
97.56	1628.0	1514.5
97.57	1557.0	1514.5
97.58	1540.0	1514.6
97.59	1565.0	1514.6
97.6	1583.0	1514.6
97.61	1573.0	1514.6
97.62	1527.0	1514.7
97.63	1551.0	1514.7
97.64	1532.0	1514.7
97.65	1522.0	1514.7
97.66	1572.0	1514.8
97.67	1582.0	1514.8
97.68	1585.0	1514.8
97.69	1570.0	1514.8
97.7	1562.0	1514.8
97.71	1579.0	1514.9
97.72	1588.0	1514.9
97.73	1629.0	1514.9
97.74	1617.0	1514.9
97.75	1599.0	1514.9
97.76	1589.0	1515.0
97.77	1558.0	1515.0
97.78	1506.0	1515.0
97.79	1515.0	1515.0
97.8	1555.0	1515.0
97.81	1534.0	1515.0
97.82	1547.0	1515.1
97.83	1595.0	1515.1
97.84	1595.0	1515.1
97.85	1549.0	1515.1
97.86	1551.0	1515.1
97.87	1557.0	1515.1
97.88	1542.0	1515.2
97.89	1600.0	1515.2
97.9	1608.0	1515.2
97.91	1575.0	1515.2
97.92	1556.0	1515.2
97.93	1603.0	1515.2
97.94	1620.0	1515.2
97.95	1590.0	1515.3
97.96	1559.0	1515.3
97.97	1561.0	1515.3
97.98	1532.0	1515.3
97.99	1514.0	1515.3
98.0	1526.0	1515.3
98.01	1537.0	1515.3
98.02	1534.0	1515.3
98.03	1538.0	1515.3
98.04	1587.0	1515.4
98.05	1561.0	1515.4
98.06	1569.0	1515.4
98.07	1541.0	1515.4
98.08	1539.0	1515.4
98.09	1565.0	1515.4
98.1	1617.0	1515.4
98.11	1613.0	1515.4
98.12	1572.0	1515.4
98.13	1550.0	1515.4
98.14	1583.0	1515.4
98.15	1567.0	1515.4
98.16	1557.0	1515.4
98.17	1590.0	1515.4
98.18	1557.0	1515.5
98.19	1562.0	1515.5
98.2	1587.0	1515.5
98.21	1588.0	1515.5
98.22	1580.0	1515.5
98.23	1565.0	1515.5
98.24	1565.0	1515.5
98.25	1550.0	1515.5
98.26	1616.0	1515.5
98.27	1574.0	1515.5
98.28	1617.0	1515.5
98.29	1548.0	1515.5
98.3	1559.0	1515.5
98.31	1519.0	1515.5
98.32	1538.0	1515.5
98.33	1533.0	1515.5
98.34	1535.0	1515.5
98.35	1551.0	1515.5
98.36	1575.0	1515.5
98.37	1590.0	1515.5
98.38	1577.0	1515.5
98.39	1545.0	1515.5
98.4	1551.0	1515.5
98.41	1571.0	1515.5
98.42	1557.0	1515.5
98.43	1587.0	1515.5
98.44	1610.0	1515.5
98.45	1589.0	1515.5
98.46	1593.0	1515.5
98.47	1608.0	1515.5
98.48	1591.0	1515.5
98.49	1563.0	1515.5
98.5	1549.0	1515.5
98.51	1576.0	1515.5
98.52	1574.0	1515.5
98.53	1556.0	1515.5
98.54	1559.0	1515.5
98.55	1597.0	1515.5
98.56	1590.0	1515.5
98.57	1537.0	1515.5
98.58	1558.0	1515.5
98.59	1590.0	1515.5
98.6	1607.0	1515.4
98.61	1628.0	1515.4
98.62	1618.0	1515.4
98.63	1621.0	1515.4
98.64	1631.0	1515.4
98.65	1639.0	1515.4
98.66	1580.0	1515.4
98.67	1548.0	1515.4
98.68	1523.0	1515.4
98.69	1585.0	1515.4
98.7	1605.0	1515.4
98.71	1562.0	1515.4
98.72	1575.0	1515.4
98.73	1572.0	1515.4
98.74	1604.0	1515.4
98.75	1628.0	1515.3
98.76	1611.0	1515.3
98.77	1601.0	1515.3
98.78	1613.0	1515.3
98.79	1548.0	1515.3
98.8	1531.0	1515.3
98.81	1620.0	1515.3
98.82	1649.0	1515.3
98.83	1585.0	1515.3
98.84	1612.0	1515.3
98.85	1594.0	1515.3
98.86	1557.0	1515.2
98.87	1609.0	1515.2
98.88	1597.0	1515.2
98.89	1616.0	1515.2
98.9	1596.0	1515.2
98.91	1583.0	1515.2
98.92	1649.0	1515.2
98.93	1599.0	1515.2
98.94	1578.0	1515.2
98.95	1538.0	1515.1
98.96	1605.0	1515.1
98.97	1611.0	1515.1
98.98	1604.0	1515.1
98.99	1661.0	1515.1
99.0	1682.0	1515.1
99.01	1646.0	1515.1
99.02	1598.0	1515.1
99.03	1608.0	1515.0
99.04	1639.0	1515.0
99.05	1625.0	1515.0
99.06	1639.0	1515.0
99.07	1639.0	1515.0
99.08	1628.0	1515.0
99.09	1637.0	1515.0
99.1	1626.0	1514.9
99.11	1607.0	1514.9
99.12	1694.0	1514.9
99.13	1671.0	1514.9
99.14	1639.0	1514.9
99.15	1625.0	1514.9
99.16	1657.0	1514.9
99.17	1627.0	1514.8
99.18	1605.0	1514.8
99.19	1595.0	1514.8
99.2	1631.0	1514.8
99.21	1642.0	1514.8
99.22	1679.0	1514.8
99.23	1677.0	1514.7
99.24	1657.0	1514.7
99.25	1643.0	1514.7
99.26	1624.0	1514.7
99.27	1626.0	1514.7
99.28	1650.0	1514.7
99.29	1648.0	1514.6
99.3	1627.0	1514.6
99.31	1608.0	1514.6
99.32	1663.0	1514.6
99.33	1664.0	1514.6
99.34	1652.0	1514.6
99.35	1626.0	1514.5
99.36	1616.0	1514.5
99.37	1620.0	1514.5
99.38	1584.0	1514.5
99.39	1592.0	1514.5
99.4	1621.0	1514.5
99.41	1654.0	1514.4
99.42	1631.0	1514.4
99.43	1600.0	1514.4
99.44	1630.0	1514.4
99.45	1638.0	1514.4
99.46	1600.0	1514.3
99.47	1618.0	1514.3
99.48	1614.0	1514.3
99.49	1616.0	1514.3
99.5	1635.0	1514.3
99.51	1622.0	1514.3
99.52	1615.0	1514.2
99.53	1619.0	1514.2
99.54	1626.0	1514.2
99.55	1621.0	1514.2
99.56	1645.0	1514.2
99.57	1591.0	1514.1
99.58	1625.0	1514.1
99.59	1615.0	1514.1
99.6	1614.0	1514.1
99.61	1623.0	1514.1
99.62	1638.0	1514.0
99.63	1645.0	1514.0
99.64	1623.0	1514.0
99.65	1599.0	1514.0
99.66	1591.0	1514.0
99.67	1630.0	1513.9
99.68	1673.0	1513.9
99.69	1648.0	1513.9
99.7	1631.0	1513.9
99.71	1599.0	1513.9
99.72	1531.0	1513.8
99.73	1615.0	1513.8
99.74	1630.0	1513.8
99.75	1596.0	1513.8
99.76	1665.0	1513.8
99.77	1689.0	1513.7
99.78	1609.0	1513.7
99.79	1584.0	1513.7
99.8	1589.0	1513.7
99.81	1629.0	1513.7
99.82	1678.0	1513.6
99.83	1680.0	1513.6
99.84	1611.0	1513.6
99.85	1609.0	1513.6
99.86	1587.0	1513.6
99.87	1630.0	1513.5
99.88	1673.0	1513.5
99.89	1657.0	1513.5
99.9	1619.0	1513.5
99.91	1597.0	1513.5
99.92	1577.0	1513.4
99.93	1576.0	1513.4
99.94	1592.0	1513.4
99.95	1588.0	1513.4
99.96	1624.0	1513.4
99.97	1586.0	1513.3
99.98	1584.0	1513.3
99.99	1586.0	1513.3
100.0	1625.0	1513.3
