Thick_MnF2_0p6mm_pel
Wavelength = 1.54059 Ã… (Cu)
Angle	I(o)	I(b)
10.0	1822.0	1834.0
10.01	1838.0	1835.5
10.02	1847.0	1837.1
10.03	1863.0	1838.7
10.04	1842.0	1840.3
10.05	1852.0	1841.8
10.06	1889.0	1843.4
10.07	1906.0	1845.0
10.08	1937.0	1846.6
10.09	1899.0	1848.1
10.1	1919.0	1849.7
10.11	1854.0	1851.3
10.12	1860.0	1852.9
10.13	1881.0	1854.4
10.14	1882.0	1856.0
10.15	1886.0	1857.6
10.16	1884.0	1859.2
10.17	1896.0	1860.7
10.18	1936.0	1862.3
10.19	1966.0	1863.9
10.2	1941.0	1865.5
10.21	1905.0	1867.0
10.22	1951.0	1868.6
10.23	1953.0	1870.2
10.24	1887.0	1871.8
10.25	1902.0	1873.3
10.26	1912.0	1874.9
10.27	1918.0	1876.5
10.28	1870.0	1878.1
10.29	1922.0	1879.7
10.3	1965.0	1881.2
10.31	1921.0	1882.8
10.32	1931.0	1884.4
10.33	1933.0	1886.0
10.34	1978.0	1887.5
10.35	1928.0	1889.1
10.36	1933.0	1890.7
10.37	1961.0	1892.3
10.38	1955.0	1893.9
10.39	1967.0	1895.4
10.4	1925.0	1897.0
10.41	1891.0	1898.6
10.42	1890.0	1900.2
10.43	1907.0	1901.8
10.44	1943.0	1903.3
10.45	1918.0	1904.9
10.46	1915.0	1906.5
10.47	1885.0	1908.1
10.48	1905.0	1909.7
10.49	1960.0	1911.3
10.5	1955.0	1912.8
10.51	1948.0	1914.4
10.52	1999.0	1916.0
10.53	1956.0	1917.6
10.54	1960.0	1919.2
10.55	2008.0	1920.8
10.56	1970.0	1922.3
10.57	1979.0	1923.9
10.58	1958.0	1925.5
10.59	1979.0	1927.1
10.6	1969.0	1928.7
10.61	1947.0	1930.3
10.62	1930.0	1931.9
10.63	1963.0	1933.5
10.64	1985.0	1935.1
10.65	2013.0	1936.6
10.66	1977.0	1938.2
10.67	1952.0	1939.8
10.68	2029.0	1941.4
10.69	2017.0	1943.0
10.7	1976.0	1944.6
10.71	1956.0	1946.2
10.72	2013.0	1947.8
10.73	1956.0	1949.4
10.74	1993.0	1951.0
10.75	1963.0	1952.6
10.76	1937.0	1954.2
10.77	1984.0	1955.8
10.78	1974.0	1957.4
10.79	1973.0	1959.0
10.8	1982.0	1960.6
10.81	2002.0	1962.2
10.82	1950.0	1963.8
10.83	2000.0	1965.4
10.84	2013.0	1967.0
10.85	2040.0	1968.6
10.86	2010.0	1970.2
10.87	2024.0	1971.8
10.88	2047.0	1973.4
10.89	1980.0	1975.0
10.9	2011.0	1976.6
10.91	2021.0	1978.2
10.92	2042.0	1979.8
10.93	2000.0	1981.4
10.94	2028.0	1983.0
10.95	2000.0	1984.6
10.96	1996.0	1986.2
10.97	2012.0	1987.8
10.98	1973.0	1989.5
10.99	2011.0	1991.1
11.0	2040.0	1992.7
11.01	2057.0	1994.3
11.02	2049.0	1995.9
11.03	2022.0	1997.5
11.04	2024.0	1999.1
11.05	2030.0	2000.8
11.06	1970.0	2002.4
11.07	2040.0	2004.0
11.08	1990.0	2005.6
11.09	2024.0	2007.2
11.1	2034.0	2008.9
11.11	2015.0	2010.5
11.12	2008.0	2012.1
11.13	2009.0	2013.7
11.14	2075.0	2015.3
11.15	2073.0	2017.0
11.16	2118.0	2018.6
11.17	2108.0	2020.2
11.18	2034.0	2021.9
11.19	2034.0	2023.5
11.2	2036.0	2025.1
11.21	2069.0	2026.7
11.22	2089.0	2028.4
11.23	2011.0	2030.0
11.24	1996.0	2031.6
11.25	2075.0	2033.3
11.26	2079.0	2034.9
11.27	2076.0	2036.5
11.28	2042.0	2038.2
11.29	2086.0	2039.8
11.3	2108.0	2041.4
11.31	2111.0	2043.1
11.32	2177.0	2044.7
11.33	2097.0	2046.3
11.34	2068.0	2048.0
11.35	2075.0	2049.6
11.36	2032.0	2051.3
11.37	2051.0	2052.9
11.38	2094.0	2054.5
11.39	2127.0	2056.2
11.4	2077.0	2057.8
11.41	2099.0	2059.5
11.42	2046.0	2061.1
11.43	2026.0	2062.7
11.44	2074.0	2064.4
11.45	2082.0	2066.0
11.46	2086.0	2067.7
11.47	2065.0	2069.3
11.48	2056.0	2071.0
11.49	2097.0	2072.6
11.5	2124.0	2074.3
11.51	2126.0	2075.9
11.52	2137.0	2077.5
11.53	2147.0	2079.2
11.54	2118.0	2080.8
11.55	2085.0	2082.5
11.56	2136.0	2084.1
11.57	2135.0	2085.8
11.58	2142.0	2087.4
11.59	2151.0	2089.1
11.6	2109.0	2090.7
11.61	2057.0	2092.4
11.62	2086.0	2094.0
11.63	2047.0	2095.7
11.64	2148.0	2097.3
11.65	2098.0	2099.0
11.66	2117.0	2100.6
11.67	2104.0	2102.3
11.68	2142.0	2103.9
11.69	2137.0	2105.6
11.7	2165.0	2107.3
11.71	2221.0	2108.9
11.72	2182.0	2110.6
11.73	2154.0	2112.2
11.74	2106.0	2113.9
11.75	2117.0	2115.5
11.76	2130.0	2117.2
11.77	2161.0	2118.8
11.78	2176.0	2120.5
11.79	2178.0	2122.1
11.8	2164.0	2123.8
11.81	2130.0	2125.5
11.82	2071.0	2127.1
11.83	2135.0	2128.8
11.84	2170.0	2130.4
11.85	2165.0	2132.1
11.86	2173.0	2133.7
11.87	2191.0	2135.4
11.88	2136.0	2137.0
11.89	2151.0	2138.7
11.9	2169.0	2140.4
11.91	2173.0	2142.0
11.92	2162.0	2143.7
11.93	2139.0	2145.3
11.94	2160.0	2147.0
11.95	2159.0	2148.6
11.96	2158.0	2150.3
11.97	2150.0	2151.9
11.98	2188.0	2153.6
11.99	2188.0	2155.3
12.0	2131.0	2156.9
12.01	2174.0	2158.6
12.02	2216.0	2160.2
12.03	2141.0	2161.9
12.04	2099.0	2163.5
12.05	2133.0	2165.2
12.06	2185.0	2166.9
12.07	2218.0	2168.5
12.08	2212.0	2170.2
12.09	2186.0	2171.8
12.1	2181.0	2173.5
12.11	2192.0	2175.1
12.12	2159.0	2176.8
12.13	2124.0	2178.4
12.14	2124.0	2180.1
12.15	2145.0	2181.8
12.16	2174.0	2183.4
12.17	2219.0	2185.1
12.18	2187.0	2186.7
12.19	2126.0	2188.4
12.2	2127.0	2190.0
12.21	2175.0	2191.7
12.22	2172.0	2193.3
12.23	2151.0	2195.0
12.24	2152.0	2196.6
12.25	2162.0	2198.3
12.26	2211.0	2200.0
12.27	2242.0	2201.6
12.28	2214.0	2203.3
12.29	2171.0	2204.9
12.3	2256.0	2206.6
12.31	2267.0	2208.2
12.32	2268.0	2209.9
12.33	2202.0	2211.5
12.34	2189.0	2213.2
12.35	2196.0	2214.8
12.36	2198.0	2216.5
12.37	2192.0	2218.1
12.38	2198.0	2219.8
12.39	2232.0	2221.4
12.4	2246.0	2223.1
12.41	2264.0	2224.7
12.42	2293.0	2226.4
12.43	2257.0	2228.0
12.44	2208.0	2229.7
12.45	2191.0	2231.3
12.46	2161.0	2232.9
12.47	2196.0	2234.6
12.48	2239.0	2236.2
12.49	2237.0	2237.9
12.5	2236.0	2239.5
12.51	2287.0	2241.2
12.52	2267.0	2242.8
12.53	2210.0	2244.5
12.54	2242.0	2246.1
12.55	2285.0	2247.7
12.56	2277.0	2249.4
12.57	2262.0	2251.0
12.58	2209.0	2252.7
12.59	2230.0	2254.3
12.6	2263.0	2255.9
12.61	2242.0	2257.6
12.62	2235.0	2259.2
12.63	2253.0	2260.9
12.64	2251.0	2262.5
12.65	2280.0	2264.1
12.66	2320.0	2265.8
12.67	2296.0	2267.4
12.68	2259.0	2269.0
12.69	2227.0	2270.7
12.7	2231.0	2272.3
12.71	2286.0	2273.9
12.72	2309.0	2275.6
12.73	2335.0	2277.2
12.74	2311.0	2278.8
12.75	2214.0	2280.5
12.76	2201.0	2282.1
12.77	2253.0	2283.7
12.78	2295.0	2285.3
12.79	2292.0	2287.0
12.8	2298.0	2288.6
12.81	2299.0	2290.2
12.82	2234.0	2291.8
12.83	2241.0	2293.5
12.84	2263.0	2295.1
12.85	2309.0	2296.7
12.86	2311.0	2298.3
12.87	2351.0	2299.9
12.88	2339.0	2301.6
12.89	2288.0	2303.2
12.9	2290.0	2304.8
12.91	2278.0	2306.4
12.92	2289.0	2308.0
12.93	2332.0	2309.7
12.94	2338.0	2311.3
12.95	2319.0	2312.9
12.96	2343.0	2314.5
12.97	2304.0	2316.1
12.98	2302.0	2317.7
12.99	2307.0	2319.3
13.0	2281.0	2320.9
13.01	2329.0	2322.5
13.02	2339.0	2324.2
13.03	2295.0	2325.8
13.04	2252.0	2327.4
13.05	2371.0	2329.0
13.06	2369.0	2330.6
13.07	2312.0	2332.2
13.08	2327.0	2333.8
13.09	2334.0	2335.4
13.1	2351.0	2337.0
13.11	2294.0	2338.6
13.12	2351.0	2340.2
13.13	2405.0	2341.8
13.14	2365.0	2343.4
13.15	2334.0	2345.0
13.16	2336.0	2346.6
13.17	2316.0	2348.1
13.18	2376.0	2349.7
13.19	2468.0	2351.3
13.2	2410.0	2352.9
13.21	2362.0	2354.5
13.22	2383.0	2356.1
13.23	2432.0	2357.7
13.24	2362.0	2359.3
13.25	2381.0	2360.8
13.26	2354.0	2362.4
13.27	2339.0	2364.0
13.28	2312.0	2365.6
13.29	2350.0	2367.2
13.3	2360.0	2368.7
13.31	2357.0	2370.3
13.32	2359.0	2371.9
13.33	2379.0	2373.5
13.34	2340.0	2375.0
13.35	2413.0	2376.6
13.36	2431.0	2378.2
13.37	2403.0	2379.8
13.38	2367.0	2381.3
13.39	2354.0	2382.9
13.4	2412.0	2384.5
13.41	2448.0	2386.0
13.42	2436.0	2387.6
13.43	2425.0	2389.2
13.44	2434.0	2390.7
13.45	2406.0	2392.3
13.46	2398.0	2393.9
13.47	2428.0	2395.4
13.48	2429.0	2397.0
13.49	2456.0	2398.5
13.5	2457.0	2400.1
13.51	2413.0	2401.6
13.52	2456.0	2403.2
13.53	2392.0	2404.7
13.54	2404.0	2406.3
13.55	2423.0	2407.8
13.56	2419.0	2409.4
13.57	2457.0	2410.9
13.58	2472.0	2412.5
13.59	2413.0	2414.0
13.6	2387.0	2415.6
13.61	2413.0	2417.1
13.62	2470.0	2418.7
13.63	2524.0	2420.2
13.64	2510.0	2421.7
13.65	2520.0	2423.3
13.66	2519.0	2424.8
13.67	2488.0	2426.4
13.68	2509.0	2427.9
13.69	2540.0	2429.4
13.7	2466.0	2431.0
13.71	2424.0	2432.5
13.72	2443.0	2434.0
13.73	2446.0	2435.6
13.74	2458.0	2437.1
13.75	2460.0	2438.6
13.76	2482.0	2440.1
13.77	2449.0	2441.7
13.78	2438.0	2443.2
13.79	2453.0	2444.7
13.8	2490.0	2446.2
13.81	2487.0	2447.7
13.82	2498.0	2449.3
13.83	2493.0	2450.8
13.84	2487.0	2452.3
13.85	2494.0	2453.8
13.86	2489.0	2455.3
13.87	2436.0	2456.8
13.88	2459.0	2458.3
13.89	2504.0	2459.9
13.9	2466.0	2461.4
13.91	2486.0	2462.9
13.92	2516.0	2464.4
13.93	2483.0	2465.9
13.94	2507.0	2467.4
13.95	2486.0	2468.9
13.96	2509.0	2470.4
13.97	2533.0	2471.9
13.98	2526.0	2473.4
13.99	2501.0	2474.9
14.0	2495.0	2476.4
14.01	2554.0	2477.9
14.02	2546.0	2479.4
14.03	2521.0	2480.9
14.04	2522.0	2482.4
14.05	2521.0	2483.8
14.06	2479.0	2485.3
14.07	2496.0	2486.8
14.08	2510.0	2488.3
14.09	2561.0	2489.8
14.1	2599.0	2491.3
14.11	2557.0	2492.7
14.12	2533.0	2494.2
14.13	2527.0	2495.7
14.14	2562.0	2497.2
14.15	2543.0	2498.7
14.16	2496.0	2500.1
14.17	2534.0	2501.6
14.18	2581.0	2503.1
14.19	2560.0	2504.6
14.2	2514.0	2506.0
14.21	2580.0	2507.5
14.22	2611.0	2509.0
14.23	2599.0	2510.4
14.24	2582.0	2511.9
14.25	2597.0	2513.4
14.26	2592.0	2514.8
14.27	2582.0	2516.3
14.28	2601.0	2517.7
14.29	2588.0	2519.2
14.3	2588.0	2520.7
14.31	2617.0	2522.1
14.32	2615.0	2523.6
14.33	2592.0	2525.0
14.34	2560.0	2526.5
14.35	2547.0	2527.9
14.36	2560.0	2529.4
14.37	2505.0	2530.8
14.38	2575.0	2532.3
14.39	2581.0	2533.7
14.4	2610.0	2535.1
14.41	2623.0	2536.6
14.42	2638.0	2538.0
14.43	2627.0	2539.5
14.44	2585.0	2540.9
14.45	2597.0	2542.3
14.46	2622.0	2543.8
14.47	2576.0	2545.2
14.48	2558.0	2546.6
14.49	2585.0	2548.1
14.5	2577.0	2549.5
14.51	2596.0	2550.9
14.52	2643.0	2552.3
14.53	2673.0	2553.8
14.54	2699.0	2555.2
14.55	2666.0	2556.6
14.56	2628.0	2558.0
14.57	2686.0	2559.5
14.58	2648.0	2560.9
14.59	2608.0	2562.3
14.6	2600.0	2563.7
14.61	2605.0	2565.1
14.62	2677.0	2566.5
14.63	2651.0	2567.9
14.64	2606.0	2569.3
14.65	2602.0	2570.8
14.66	2638.0	2572.2
14.67	2672.0	2573.6
14.68	2661.0	2575.0
14.69	2626.0	2576.4
14.7	2571.0	2577.8
14.71	2562.0	2579.2
14.72	2562.0	2580.6
14.73	2593.0	2582.0
14.74	2648.0	2583.4
14.75	2658.0	2584.7
14.76	2609.0	2586.1
14.77	2576.0	2587.5
14.78	2572.0	2588.9
14.79	2628.0	2590.3
14.8	2610.0	2591.7
14.81	2609.0	2593.1
14.82	2618.0	2594.5
14.83	2617.0	2595.8
14.84	2584.0	2597.2
14.85	2561.0	2598.6
14.86	2610.0	2600.0
14.87	2617.0	2601.3
14.88	2622.0	2602.7
14.89	2633.0	2604.1
14.9	2656.0	2605.5
14.91	2639.0	2606.8
14.92	2608.0	2608.2
14.93	2620.0	2609.6
14.94	2687.0	2610.9
14.95	2673.0	2612.3
14.96	2629.0	2613.6
14.97	2637.0	2615.0
14.98	2636.0	2616.4
14.99	2628.0	2617.7
15.0	2659.0	2619.1
15.01	2650.0	2620.4
15.02	2601.0	2621.8
15.03	2621.0	2623.1
15.04	2611.0	2624.5
15.05	2611.0	2625.8
15.06	2614.0	2627.2
15.07	2648.0	2628.5
15.08	2657.0	2629.9
15.09	2657.0	2631.2
15.1	2679.0	2632.5
15.11	2682.0	2633.9
15.12	2671.0	2635.2
15.13	2673.0	2636.6
15.14	2685.0	2637.9
15.15	2693.0	2639.2
15.16	2662.0	2640.5
15.17	2660.0	2641.9
15.18	2625.0	2643.2
15.19	2593.0	2644.5
15.2	2591.0	2645.8
15.21	2645.0	2647.2
15.22	2685.0	2648.5
15.23	2669.0	2649.8
15.24	2667.0	2651.1
15.25	2711.0	2652.4
15.26	2735.0	2653.8
15.27	2711.0	2655.1
15.28	2690.0	2656.4
15.29	2685.0	2657.7
15.3	2707.0	2659.0
15.31	2724.0	2660.3
15.32	2720.0	2661.6
15.33	2682.0	2662.9
15.34	2676.0	2664.2
15.35	2667.0	2665.5
15.36	2638.0	2666.8
15.37	2608.0	2668.1
15.38	2634.0	2669.4
15.39	2671.0	2670.7
15.4	2674.0	2672.0
15.41	2691.0	2673.3
15.42	2718.0	2674.6
15.43	2707.0	2675.8
15.44	2737.0	2677.1
15.45	2715.0	2678.4
15.46	2686.0	2679.7
15.47	2676.0	2681.0
15.48	2666.0	2682.2
15.49	2680.0	2683.5
15.5	2713.0	2684.8
15.51	2712.0	2686.1
15.52	2697.0	2687.3
15.53	2694.0	2688.6
15.54	2689.0	2689.9
15.55	2671.0	2691.1
15.56	2684.0	2692.4
15.57	2648.0	2693.7
15.58	2648.0	2694.9
15.59	2664.0	2696.2
15.6	2686.0	2697.5
15.61	2705.0	2698.7
15.62	2694.0	2700.0
15.63	2662.0	2701.2
15.64	2661.0	2702.5
15.65	2668.0	2703.7
15.66	2675.0	2705.0
15.67	2672.0	2706.2
15.68	2689.0	2707.4
15.69	2697.0	2708.7
15.7	2674.0	2709.9
15.71	2685.0	2711.2
15.72	2732.0	2712.4
15.73	2770.0	2713.6
15.74	2771.0	2714.9
15.75	2753.0	2716.1
15.76	2746.0	2717.3
15.77	2703.0	2718.6
15.78	2674.0	2719.8
15.79	2720.0	2721.0
15.8	2735.0	2722.2
15.81	2739.0	2723.5
15.82	2754.0	2724.7
15.83	2787.0	2725.9
15.84	2800.0	2727.1
15.85	2824.0	2728.3
15.86	2780.0	2729.5
15.87	2730.0	2730.7
15.88	2766.0	2732.0
15.89	2757.0	2733.2
15.9	2749.0	2734.4
15.91	2779.0	2735.6
15.92	2791.0	2736.8
15.93	2785.0	2738.0
15.94	2815.0	2739.2
15.95	2814.0	2740.4
15.96	2755.0	2741.6
15.97	2704.0	2742.8
15.98	2734.0	2743.9
15.99	2755.0	2745.1
16.0	2745.0	2746.3
16.01	2772.0	2747.5
16.02	2764.0	2748.7
16.03	2777.0	2749.9
16.04	2752.0	2751.1
16.05	2791.0	2752.2
16.06	2794.0	2753.4
16.07	2760.0	2754.6
16.08	2745.0	2755.8
16.09	2779.0	2756.9
16.1	2787.0	2758.1
16.11	2780.0	2759.3
16.12	2800.0	2760.4
16.13	2779.0	2761.6
16.14	2753.0	2762.7
16.15	2754.0	2763.9
16.16	2763.0	2765.1
16.17	2751.0	2766.2
16.18	2747.0	2767.4
16.19	2788.0	2768.5
16.2	2830.0	2769.7
16.21	2824.0	2770.8
16.22	2780.0	2772.0
16.23	2754.0	2773.1
16.24	2760.0	2774.3
16.25	2808.0	2775.4
16.26	2867.0	2776.5
16.27	2850.0	2777.7
16.28	2817.0	2778.8
16.29	2824.0	2779.9
16.3	2855.0	2781.1
16.31	2852.0	2782.2
16.32	2796.0	2783.3
16.33	2777.0	2784.5
16.34	2827.0	2785.6
16.35	2821.0	2786.7
16.36	2813.0	2787.8
16.37	2844.0	2788.9
16.38	2843.0	2790.1
16.39	2816.0	2791.2
16.4	2804.0	2792.3
16.41	2877.0	2793.4
16.42	2904.0	2794.5
16.43	2900.0	2795.6
16.44	2879.0	2796.7
16.45	2821.0	2797.8
16.46	2812.0	2798.9
16.47	2822.0	2800.0
16.48	2820.0	2801.1
16.49	2840.0	2802.2
16.5	2892.0	2803.3
16.51	2867.0	2804.4
16.52	2841.0	2805.5
16.53	2871.0	2806.6
16.54	2897.0	2807.6
16.55	2890.0	2808.7
16.56	2875.0	2809.8
16.57	2882.0	2810.9
16.58	2858.0	2812.0
16.59	2851.0	2813.0
16.6	2894.0	2814.1
16.61	2886.0	2815.2
16.62	2893.0	2816.2
16.63	2921.0	2817.3
16.64	2928.0	2818.4
16.65	2892.0	2819.4
16.66	2912.0	2820.5
16.67	2899.0	2821.6
16.68	2865.0	2822.6
16.69	2858.0	2823.7
16.7	2877.0	2824.7
16.71	2857.0	2825.8
16.72	2884.0	2826.8
16.73	2896.0	2827.9
16.74	2861.0	2828.9
16.75	2862.0	2829.9
16.76	2893.0	2831.0
16.77	2898.0	2832.0
16.78	2910.0	2833.1
16.79	2903.0	2834.1
16.8	2869.0	2835.1
16.81	2889.0	2836.2
16.82	2909.0	2837.2
16.83	2912.0	2838.2
16.84	2925.0	2839.2
16.85	2910.0	2840.2
16.86	2852.0	2841.3
16.87	2825.0	2842.3
16.88	2852.0	2843.3
16.89	2863.0	2844.3
16.9	2883.0	2845.3
16.91	2886.0	2846.3
16.92	2851.0	2847.3
16.93	2853.0	2848.3
16.94	2912.0	2849.3
16.95	2960.0	2850.3
16.96	2936.0	2851.3
16.97	2913.0	2852.3
16.98	2895.0	2853.3
16.99	2920.0	2854.3
17.0	2970.0	2855.3
17.01	2956.0	2856.3
17.02	2918.0	2857.3
17.03	2911.0	2858.2
17.04	2908.0	2859.2
17.05	2908.0	2860.2
17.06	2893.0	2861.2
17.07	2933.0	2862.1
17.08	2989.0	2863.1
17.09	2997.0	2864.1
17.1	2959.0	2865.1
17.11	2930.0	2866.0
17.12	2949.0	2867.0
17.13	2954.0	2867.9
17.14	2934.0	2868.9
17.15	2937.0	2869.8
17.16	2949.0	2870.8
17.17	2958.0	2871.7
17.18	2941.0	2872.7
17.19	2912.0	2873.6
17.2	2953.0	2874.6
17.21	3007.0	2875.5
17.22	3010.0	2876.5
17.23	3009.0	2877.4
17.24	2983.0	2878.3
17.25	2955.0	2879.3
17.26	2973.0	2880.2
17.27	3000.0	2881.1
17.28	2987.0	2882.1
17.29	2970.0	2883.0
17.3	2979.0	2883.9
17.31	2981.0	2884.8
17.32	3001.0	2885.7
17.33	2994.0	2886.6
17.34	2957.0	2887.6
17.35	2954.0	2888.5
17.36	2966.0	2889.4
17.37	3003.0	2890.3
17.38	3021.0	2891.2
17.39	2979.0	2892.1
17.4	2952.0	2893.0
17.41	2967.0	2893.9
17.42	2992.0	2894.8
17.43	3000.0	2895.6
17.44	3007.0	2896.5
17.45	3029.0	2897.4
17.46	3036.0	2898.3
17.47	3009.0	2899.2
17.48	2983.0	2900.1
17.49	2995.0	2900.9
17.5	3011.0	2901.8
17.51	3004.0	2902.7
17.52	3010.0	2903.6
17.53	3015.0	2904.4
17.54	2989.0	2905.3
17.55	2971.0	2906.1
17.56	3045.0	2907.0
17.57	3099.0	2907.9
17.58	3036.0	2908.7
17.59	2978.0	2909.6
17.6	2969.0	2910.4
17.61	2981.0	2911.3
17.62	3015.0	2912.1
17.63	3063.0	2913.0
17.64	3085.0	2913.8
17.65	3059.0	2914.6
17.66	3024.0	2915.5
17.67	3042.0	2916.3
17.68	3038.0	2917.1
17.69	3013.0	2918.0
17.7	3012.0	2918.8
17.71	3047.0	2919.6
17.72	3059.0	2920.4
17.73	3042.0	2921.2
17.74	3107.0	2922.1
17.75	3151.0	2922.9
17.76	3159.0	2923.7
17.77	3132.0	2924.5
17.78	3077.0	2925.3
17.79	3060.0	2926.1
17.8	3068.0	2926.9
17.81	3081.0	2927.7
17.82	3074.0	2928.5
17.83	3083.0	2929.3
17.84	3094.0	2930.1
17.85	3087.0	2930.9
17.86	3098.0	2931.6
17.87	3117.0	2932.4
17.88	3124.0	2933.2
17.89	3118.0	2934.0
17.9	3139.0	2934.8
17.91	3163.0	2935.5
17.92	3137.0	2936.3
17.93	3118.0	2937.1
17.94	3136.0	2937.8
17.95	3148.0	2938.6
17.96	3156.0	2939.4
17.97	3206.0	2940.1
17.98	3207.0	2940.9
17.99	3112.0	2941.6
18.0	3093.0	2942.4
18.01	3093.0	2943.1
18.02	3076.0	2943.9
18.03	3110.0	2944.6
18.04	3116.0	2945.3
18.05	3121.0	2946.1
18.06	3132.0	2946.8
18.07	3130.0	2947.5
18.08	3108.0	2948.3
18.09	3116.0	2949.0
18.1	3139.0	2949.7
18.11	3158.0	2950.4
18.12	3188.0	2951.2
18.13	3179.0	2951.9
18.14	3165.0	2952.6
18.15	3181.0	2953.3
18.16	3172.0	2954.0
18.17	3120.0	2954.7
18.18	3120.0	2955.4
18.19	3171.0	2956.1
18.2	3175.0	2956.8
18.21	3180.0	2957.5
18.22	3195.0	2958.2
18.23	3203.0	2958.9
18.24	3173.0	2959.6
18.25	3120.0	2960.2
18.26	3127.0	2960.9
18.27	3180.0	2961.6
18.28	3247.0	2962.3
18.29	3239.0	2963.0
18.3	3219.0	2963.6
18.31	3213.0	2964.3
18.32	3184.0	2965.0
18.33	3141.0	2965.6
18.34	3167.0	2966.3
18.35	3191.0	2966.9
18.36	3179.0	2967.6
18.37	3197.0	2968.2
18.38	3209.0	2968.9
18.39	3246.0	2969.5
18.4	3255.0	2970.2
18.41	3208.0	2970.8
18.42	3208.0	2971.5
18.43	3253.0	2972.1
18.44	3283.0	2972.7
18.45	3326.0	2973.4
18.46	3328.0	2974.0
18.47	3290.0	2974.6
18.48	3225.0	2975.2
18.49	3222.0	2975.8
18.5	3253.0	2976.5
18.51	3241.0	2977.1
18.52	3210.0	2977.7
18.53	3204.0	2978.3
18.54	3227.0	2978.9
18.55	3277.0	2979.5
18.56	3295.0	2980.1
18.57	3269.0	2980.7
18.58	3279.0	2981.3
18.59	3300.0	2981.9
18.6	3302.0	2982.5
18.61	3324.0	2983.0
18.62	3323.0	2983.6
18.63	3331.0	2984.2
18.64	3321.0	2984.8
18.65	3309.0	2985.3
18.66	3259.0	2985.9
18.67	3261.0	2986.5
18.68	3257.0	2987.0
18.69	3240.0	2987.6
18.7	3269.0	2988.2
18.71	3279.0	2988.7
18.72	3286.0	2989.3
18.73	3303.0	2989.8
18.74	3306.0	2990.4
18.75	3267.0	2990.9
18.76	3237.0	2991.5
18.77	3283.0	2992.0
18.78	3283.0	2992.5
18.79	3294.0	2993.1
18.8	3366.0	2993.6
18.81	3343.0	2994.1
18.82	3360.0	2994.7
18.83	3427.0	2995.2
18.84	3354.0	2995.7
18.85	3271.0	2996.2
18.86	3283.0	2996.7
18.87	3345.0	2997.2
18.88	3364.0	2997.7
18.89	3379.0	2998.2
18.9	3420.0	2998.7
18.91	3422.0	2999.2
18.92	3363.0	2999.7
18.93	3377.0	3000.2
18.94	3393.0	3000.7
18.95	3347.0	3001.2
18.96	3323.0	3001.7
18.97	3316.0	3002.2
18.98	3323.0	3002.6
18.99	3346.0	3003.1
19.0	3331.0	3003.6
19.01	3369.0	3004.1
19.02	3383.0	3004.5
19.03	3404.0	3005.0
19.04	3440.0	3005.4
19.05	3470.0	3005.9
19.06	3397.0	3006.3
19.07	3379.0	3006.8
19.08	3434.0	3007.2
19.09	3450.0	3007.7
19.1	3471.0	3008.1
19.11	3471.0	3008.6
19.12	3462.0	3009.0
19.13	3404.0	3009.4
19.14	3337.0	3009.9
19.15	3371.0	3010.3
19.16	3416.0	3010.7
19.17	3379.0	3011.1
19.18	3412.0	3011.6
19.19	3419.0	3012.0
19.2	3381.0	3012.4
19.21	3399.0	3012.8
19.22	3415.0	3013.2
19.23	3449.0	3013.6
19.24	3453.0	3014.0
19.25	3443.0	3014.4
19.26	3492.0	3014.8
19.27	3486.0	3015.2
19.28	3416.0	3015.6
19.29	3428.0	3015.9
19.3	3439.0	3016.3
19.31	3475.0	3016.7
19.32	3458.0	3017.1
19.33	3416.0	3017.4
19.34	3420.0	3017.8
19.35	3433.0	3018.2
19.36	3462.0	3018.5
19.37	3520.0	3018.9
19.38	3487.0	3019.2
19.39	3425.0	3019.6
19.4	3365.0	3019.9
19.41	3367.0	3020.3
19.42	3490.0	3020.6
19.43	3553.0	3021.0
19.44	3521.0	3021.3
19.45	3519.0	3021.6
19.46	3479.0	3022.0
19.47	3416.0	3022.3
19.48	3413.0	3022.6
19.49	3429.0	3022.9
19.5	3499.0	3023.3
19.51	3555.0	3023.6
19.52	3507.0	3023.9
19.53	3456.0	3024.2
19.54	3452.0	3024.5
19.55	3422.0	3024.8
19.56	3441.0	3025.1
19.57	3412.0	3025.4
19.58	3408.0	3025.7
19.59	3414.0	3026.0
19.6	3414.0	3026.3
19.61	3462.0	3026.5
19.62	3500.0	3026.8
19.63	3519.0	3027.1
19.64	3552.0	3027.4
19.65	3512.0	3027.6
19.66	3477.0	3027.9
19.67	3537.0	3028.2
19.68	3526.0	3028.4
19.69	3484.0	3028.7
19.7	3516.0	3028.9
19.71	3508.0	3029.2
19.72	3493.0	3029.4
19.73	3535.0	3029.7
19.74	3538.0	3029.9
19.75	3485.0	3030.1
19.76	3475.0	3030.4
19.77	3484.0	3030.6
19.78	3492.0	3030.8
19.79	3517.0	3031.1
19.8	3530.0	3031.3
19.81	3537.0	3031.5
19.82	3538.0	3031.7
19.83	3499.0	3031.9
19.84	3521.0	3032.1
19.85	3519.0	3032.3
19.86	3554.0	3032.5
19.87	3536.0	3032.7
19.88	3497.0	3032.9
19.89	3463.0	3033.1
19.9	3478.0	3033.3
19.91	3531.0	3033.5
19.92	3596.0	3033.7
19.93	3631.0	3033.8
19.94	3573.0	3034.0
19.95	3580.0	3034.2
19.96	3582.0	3034.3
19.97	3527.0	3034.5
19.98	3488.0	3034.7
19.99	3527.0	3034.8
20.0	3529.0	3035.0
20.01	3526.0	3035.1
20.02	3526.0	3035.3
20.03	3517.0	3035.4
20.04	3550.0	3035.6
20.05	3578.0	3035.7
20.06	3593.0	3035.8
20.07	3566.0	3036.0
20.08	3517.0	3036.1
20.09	3529.0	3036.2
20.1	3536.0	3036.3
20.11	3485.0	3036.4
20.12	3493.0	3036.6
20.13	3491.0	3036.7
20.14	3502.0	3036.8
20.15	3551.0	3036.9
20.16	3560.0	3037.0
20.17	3544.0	3037.1
20.18	3531.0	3037.2
20.19	3535.0	3037.3
20.2	3513.0	3037.3
20.21	3512.0	3037.4
20.22	3555.0	3037.5
20.23	3532.0	3037.6
20.24	3530.0	3037.6
20.25	3515.0	3037.7
20.26	3539.0	3037.8
20.27	3551.0	3037.8
20.28	3553.0	3037.9
20.29	3526.0	3037.9
20.3	3498.0	3038.0
20.31	3501.0	3038.0
20.32	3565.0	3038.1
20.33	3553.0	3038.1
20.34	3574.0	3038.2
20.35	3571.0	3038.2
20.36	3534.0	3038.2
20.37	3446.0	3038.3
20.38	3422.0	3038.3
20.39	3482.0	3038.3
20.4	3504.0	3038.3
20.41	3552.0	3038.3
20.42	3558.0	3038.3
20.43	3509.0	3038.3
20.44	3473.0	3038.3
20.45	3451.0	3038.3
20.46	3446.0	3038.3
20.47	3464.0	3038.3
20.48	3551.0	3038.3
20.49	3538.0	3038.3
20.5	3523.0	3038.3
20.51	3489.0	3038.2
20.52	3507.0	3038.2
20.53	3402.0	3038.2
20.54	3477.0	3038.1
20.55	3465.0	3038.1
20.56	3504.0	3038.1
20.57	3534.0	3038.0
20.58	3480.0	3038.0
20.59	3452.0	3037.9
20.6	3445.0	3037.9
20.61	3413.0	3037.8
20.62	3484.0	3037.7
20.63	3523.0	3037.7
20.64	3505.0	3037.6
20.65	3464.0	3037.5
20.66	3431.0	3037.4
20.67	3438.0	3037.4
20.68	3466.0	3037.3
20.69	3439.0	3037.2
20.7	3420.0	3037.1
20.71	3444.0	3037.0
20.72	3411.0	3036.9
20.73	3500.0	3036.8
20.74	3554.0	3036.7
20.75	3531.0	3036.6
20.76	3485.0	3036.5
20.77	3457.0	3036.3
20.78	3518.0	3036.2
20.79	3507.0	3036.1
20.8	3461.0	3036.0
20.81	3443.0	3035.8
20.82	3453.0	3035.7
20.83	3483.0	3035.6
20.84	3540.0	3035.4
20.85	3524.0	3035.3
20.86	3514.0	3035.1
20.87	3523.0	3035.0
20.88	3548.0	3034.8
20.89	3584.0	3034.6
20.9	3485.0	3034.5
20.91	3413.0	3034.3
20.92	3458.0	3034.1
20.93	3527.0	3034.0
20.94	3472.0	3033.8
20.95	3432.0	3033.6
20.96	3477.0	3033.4
20.97	3450.0	3033.2
20.98	3436.0	3033.0
20.99	3368.0	3032.8
21.0	3400.0	3032.6
21.01	3481.0	3032.4
21.02	3463.0	3032.2
21.03	3461.0	3032.0
21.04	3464.0	3031.7
21.05	3537.0	3031.5
21.06	3509.0	3031.3
21.07	3409.0	3031.1
21.08	3418.0	3030.8
21.09	3423.0	3030.6
21.1	3481.0	3030.4
21.11	3508.0	3030.1
21.12	3448.0	3029.9
21.13	3450.0	3029.6
21.14	3483.0	3029.3
21.15	3491.0	3029.1
21.16	3490.0	3028.8
21.17	3509.0	3028.6
21.18	3461.0	3028.3
21.19	3377.0	3028.0
21.2	3434.0	3027.7
21.21	3524.0	3027.4
21.22	3489.0	3027.2
21.23	3406.0	3026.9
21.24	3457.0	3026.6
21.25	3593.0	3026.3
21.26	3502.0	3026.0
21.27	3388.0	3025.7
21.28	3434.0	3025.3
21.29	3518.0	3025.0
21.3	3543.0	3024.7
21.31	3482.0	3024.4
21.32	3476.0	3024.1
21.33	3494.0	3023.7
21.34	3480.0	3023.4
21.35	3447.0	3023.1
21.36	3397.0	3022.7
21.37	3430.0	3022.4
21.38	3479.0	3022.0
21.39	3527.0	3021.7
21.4	3499.0	3021.3
21.41	3416.0	3020.9
21.42	3457.0	3020.6
21.43	3502.0	3020.2
21.44	3511.0	3019.8
21.45	3550.0	3019.5
21.46	3470.0	3019.1
21.47	3401.0	3018.7
21.48	3415.0	3018.3
21.49	3445.0	3017.9
21.5	3456.0	3017.5
21.51	3466.0	3017.1
21.52	3423.0	3016.7
21.53	3459.0	3016.3
21.54	3488.0	3015.9
21.55	3442.0	3015.5
21.56	3434.0	3015.0
21.57	3429.0	3014.6
21.58	3445.0	3014.2
21.59	3410.0	3013.7
21.6	3455.0	3013.3
21.61	3420.0	3012.9
21.62	3472.0	3012.4
21.63	3554.0	3012.0
21.64	3421.0	3011.5
21.65	3346.0	3011.1
21.66	3408.0	3010.6
21.67	3523.0	3010.1
21.68	3513.0	3009.7
21.69	3465.0	3009.2
21.7	3449.0	3008.7
21.71	3502.0	3008.2
21.72	3498.0	3007.7
21.73	3449.0	3007.3
21.74	3464.0	3006.8
21.75	3527.0	3006.3
21.76	3477.0	3005.8
21.77	3415.0	3005.3
21.78	3480.0	3004.7
21.79	3482.0	3004.2
21.8	3464.0	3003.7
21.81	3440.0	3003.2
21.82	3483.0	3002.7
21.83	3483.0	3002.1
21.84	3444.0	3001.6
21.85	3524.0	3001.1
21.86	3561.0	3000.5
21.87	3499.0	3000.0
21.88	3483.0	2999.4
21.89	3477.0	2998.9
21.9	3510.0	2998.3
21.91	3520.0	2997.7
21.92	3464.0	2997.2
21.93	3471.0	2996.6
21.94	3377.0	2996.0
21.95	3458.0	2995.4
21.96	3535.0	2994.9
21.97	3454.0	2994.3
21.98	3490.0	2993.7
21.99	3491.0	2993.1
22.0	3424.0	2992.5
22.01	3494.0	2991.9
22.02	3445.0	2991.3
22.03	3417.0	2990.7
22.04	3458.0	2990.0
22.05	3414.0	2989.4
22.06	3390.0	2988.8
22.07	3403.0	2988.2
22.08	3388.0	2987.5
22.09	3401.0	2986.9
22.1	3448.0	2986.2
22.11	3490.0	2985.6
22.12	3514.0	2984.9
22.13	3485.0	2984.3
22.14	3517.0	2983.6
22.15	3480.0	2983.0
22.16	3461.0	2982.3
22.17	3434.0	2981.6
22.18	3434.0	2980.9
22.19	3406.0	2980.3
22.2	3425.0	2979.6
22.21	3421.0	2978.9
22.22	3339.0	2978.2
22.23	3432.0	2977.5
22.24	3446.0	2976.8
22.25	3449.0	2976.1
22.26	3399.0	2975.4
22.27	3384.0	2974.7
22.28	3399.0	2973.9
22.29	3436.0	2973.2
22.3	3471.0	2972.5
22.31	3459.0	2971.8
22.32	3441.0	2971.0
22.33	3457.0	2970.3
22.34	3463.0	2969.5
22.35	3478.0	2968.8
22.36	3489.0	2968.0
22.37	3434.0	2967.3
22.38	3475.0	2966.5
22.39	3421.0	2965.7
22.4	3504.0	2965.0
22.41	3480.0	2964.2
22.42	3404.0	2963.4
22.43	3413.0	2962.6
22.44	3396.0	2961.9
22.45	3397.0	2961.1
22.46	3387.0	2960.3
22.47	3416.0	2959.5
22.48	3386.0	2958.7
22.49	3392.0	2957.8
22.5	3333.0	2957.0
22.51	3308.0	2956.2
22.52	3360.0	2955.4
22.53	3437.0	2954.6
22.54	3415.0	2953.7
22.55	3371.0	2952.9
22.56	3361.0	2952.1
22.57	3366.0	2951.2
22.58	3352.0	2950.4
22.59	3391.0	2949.5
22.6	3421.0	2948.6
22.61	3480.0	2947.8
22.62	3388.0	2946.9
22.63	3359.0	2946.0
22.64	3415.0	2945.2
22.65	3394.0	2944.3
22.66	3423.0	2943.4
22.67	3390.0	2942.5
22.68	3291.0	2941.6
22.69	3333.0	2940.7
22.7	3303.0	2939.8
22.71	3314.0	2938.9
22.72	3333.0	2938.0
22.73	3281.0	2937.1
22.74	3244.0	2936.2
22.75	3345.0	2935.2
22.76	3373.0	2934.3
22.77	3380.0	2933.4
22.78	3260.0	2932.4
22.79	3255.0	2931.5
22.8	3261.0	2930.5
22.81	3266.0	2929.6
22.82	3246.0	2928.6
22.83	3372.0	2927.7
22.84	3370.0	2926.7
22.85	3307.0	2925.7
22.86	3280.0	2924.8
22.87	3272.0	2923.8
22.88	3265.0	2922.8
22.89	3266.0	2921.8
22.9	3271.0	2920.8
22.91	3272.0	2919.8
22.92	3221.0	2918.8
22.93	3198.0	2917.8
22.94	3250.0	2916.8
22.95	3220.0	2915.8
22.96	3191.0	2914.8
22.97	3275.0	2913.8
22.98	3215.0	2912.7
22.99	3220.0	2911.7
23.0	3258.0	2910.7
23.01	3276.0	2909.6
23.02	3271.0	2908.6
23.03	3258.0	2907.5
23.04	3191.0	2906.5
23.05	3137.0	2905.4
23.06	3116.0	2904.3
23.07	3120.0	2903.3
23.08	3174.0	2902.2
23.09	3191.0	2901.1
23.1	3160.0	2900.0
23.11	3184.0	2898.9
23.12	3136.0	2897.8
23.13	3170.0	2896.7
23.14	3161.0	2895.6
23.15	3149.0	2894.5
23.16	3100.0	2893.4
23.17	3102.0	2892.3
23.18	3079.0	2891.2
23.19	3073.0	2890.1
23.2	3111.0	2888.9
23.21	3093.0	2887.8
23.22	3099.0	2886.7
23.23	3092.0	2885.5
23.24	3067.0	2884.4
23.25	3106.0	2883.2
23.26	3049.0	2882.1
23.27	3041.0	2880.9
23.28	3045.0	2879.7
23.29	2986.0	2878.6
23.3	3036.0	2877.4
23.31	3107.0	2876.2
23.32	3045.0	2875.0
23.33	3057.0	2873.8
23.34	3121.0	2872.6
23.35	3133.0	2871.4
23.36	3121.0	2870.2
23.37	3191.0	2869.0
23.38	3104.0	2867.8
23.39	3090.0	2866.6
23.4	3058.0	2865.4
23.41	3071.0	2864.1
23.42	3035.0	2862.9
23.43	3005.0	2861.7
23.44	3007.0	2860.4
23.45	2948.0	2859.2
23.46	3032.0	2857.9
23.47	3033.0	2856.7
23.48	2974.0	2855.4
23.49	2980.0	2854.1
23.5	2979.0	2852.9
23.51	2966.0	2851.6
23.52	3025.0	2850.3
23.53	2960.0	2849.0
23.54	2957.0	2847.7
23.55	2966.0	2846.4
23.56	2932.0	2845.1
23.57	2981.0	2843.8
23.58	3039.0	2842.5
23.59	2985.0	2841.2
23.6	2928.0	2839.9
23.61	2925.0	2838.6
23.62	2954.0	2837.2
23.63	2870.0	2835.9
23.64	2889.0	2834.6
23.65	2978.0	2833.2
23.66	2967.0	2831.9
23.67	2883.0	2830.5
23.68	2930.0	2829.2
23.69	2917.0	2827.8
23.7	2892.0	2826.4
23.71	2854.0	2825.1
23.72	2883.0	2823.7
23.73	2921.0	2822.3
23.74	2894.0	2820.9
23.75	2927.0	2819.5
23.76	2858.0	2818.1
23.77	2863.0	2816.7
23.78	2945.0	2815.3
23.79	2872.0	2813.9
23.8	2860.0	2812.5
23.81	2897.0	2811.1
23.82	2886.0	2809.7
23.83	2854.0	2808.2
23.84	2931.0	2806.8
23.85	2952.0	2805.4
23.86	2865.0	2803.9
23.87	2778.0	2802.5
23.88	2776.0	2801.0
23.89	2818.0	2799.5
23.9	2842.0	2798.1
23.91	2873.0	2796.6
23.92	2851.0	2795.1
23.93	2790.0	2793.7
23.94	2752.0	2792.2
23.95	2791.0	2790.7
23.96	2819.0	2789.2
23.97	2879.0	2787.7
23.98	2872.0	2786.2
23.99	2871.0	2784.7
24.0	2884.0	2783.2
24.01	2874.0	2781.6
24.02	2868.0	2780.1
24.03	2842.0	2778.6
24.04	2835.0	2777.1
24.05	2815.0	2775.5
24.06	2831.0	2774.0
24.07	2807.0	2772.4
24.08	2865.0	2770.9
24.09	2822.0	2769.3
24.1	2811.0	2767.8
24.11	2792.0	2766.2
24.12	2771.0	2764.6
24.13	2829.0	2763.1
24.14	2824.0	2761.5
24.15	2770.0	2759.9
24.16	2797.0	2758.3
24.17	2782.0	2756.7
24.18	2803.0	2755.1
24.19	2843.0	2753.5
24.2	2835.0	2751.9
24.21	2905.0	2750.3
24.22	2884.0	2748.7
24.23	2822.0	2747.1
24.24	2772.0	2745.5
24.25	2831.0	2743.8
24.26	2794.0	2742.2
24.27	2780.0	2740.6
24.28	2804.0	2738.9
24.29	2844.0	2737.3
24.3	2784.0	2735.6
24.31	2756.0	2734.0
24.32	2764.0	2732.3
24.33	2804.0	2730.7
24.34	2758.0	2729.0
24.35	2740.0	2727.4
24.36	2706.0	2725.7
24.37	2710.0	2724.0
24.38	2757.0	2722.3
24.39	2694.0	2720.7
24.4	2683.0	2719.0
24.41	2695.0	2717.3
24.42	2749.0	2715.6
24.43	2781.0	2713.9
24.44	2752.0	2712.2
24.45	2749.0	2710.5
24.46	2739.0	2708.8
24.47	2737.0	2707.1
24.48	2709.0	2705.4
24.49	2777.0	2703.6
24.5	2755.0	2701.9
24.51	2709.0	2700.2
24.52	2717.0	2698.5
24.53	2696.0	2696.7
24.54	2722.0	2695.0
24.55	2760.0	2693.2
24.56	2791.0	2691.5
24.57	2788.0	2689.8
24.58	2774.0	2688.0
24.59	2733.0	2686.3
24.6	2728.0	2684.5
24.61	2756.0	2682.7
24.62	2783.0	2681.0
24.63	2737.0	2679.2
24.64	2732.0	2677.4
24.65	2757.0	2675.7
24.66	2758.0	2673.9
24.67	2742.0	2672.1
24.68	2726.0	2670.3
24.69	2751.0	2668.6
24.7	2717.0	2666.8
24.71	2758.0	2665.0
24.72	2771.0	2663.2
24.73	2728.0	2661.4
24.74	2740.0	2659.6
24.75	2722.0	2657.8
24.76	2742.0	2656.0
24.77	2748.0	2654.2
24.78	2688.0	2652.4
24.79	2704.0	2650.5
24.8	2682.0	2648.7
24.81	2696.0	2646.9
24.82	2756.0	2645.1
24.83	2750.0	2643.3
24.84	2724.0	2641.4
24.85	2720.0	2639.6
24.86	2721.0	2637.8
24.87	2779.0	2635.9
24.88	2763.0	2634.1
24.89	2680.0	2632.2
24.9	2701.0	2630.4
24.91	2671.0	2628.6
24.92	2671.0	2626.7
24.93	2694.0	2624.9
24.94	2762.0	2623.0
24.95	2775.0	2621.1
24.96	2778.0	2619.3
24.97	2754.0	2617.4
24.98	2727.0	2615.6
24.99	2755.0	2613.7
25.0	2761.0	2611.8
25.01	2737.0	2610.0
25.02	2678.0	2608.1
25.03	2671.0	2606.2
25.04	2676.0	2604.3
25.05	2701.0	2602.5
25.06	2703.0	2600.6
25.07	2694.0	2598.7
25.08	2756.0	2596.8
25.09	2760.0	2594.9
25.1	2712.0	2593.0
25.11	2735.0	2591.1
25.12	2742.0	2589.3
25.13	2752.0	2587.4
25.14	2698.0	2585.5
25.15	2748.0	2583.6
25.16	2764.0	2581.7
25.17	2764.0	2579.8
25.18	2736.0	2577.9
25.19	2752.0	2575.9
25.2	2741.0	2574.0
25.21	2730.0	2572.1
25.22	2744.0	2570.2
25.23	2759.0	2568.3
25.24	2745.0	2566.4
25.25	2671.0	2564.5
25.26	2720.0	2562.5
25.27	2802.0	2560.6
25.28	2800.0	2558.7
25.29	2775.0	2556.8
25.3	2840.0	2554.9
25.31	2844.0	2552.9
25.32	2821.0	2551.0
25.33	2834.0	2549.1
25.34	2842.0	2547.1
25.35	2808.0	2545.2
25.36	2789.0	2543.3
25.37	2805.0	2541.3
25.38	2788.0	2539.4
25.39	2749.0	2537.5
25.4	2808.0	2535.5
25.41	2812.0	2533.6
25.42	2807.0	2531.6
25.43	2828.0	2529.7
25.44	2825.0	2527.8
25.45	2835.0	2525.8
25.46	2800.0	2523.9
25.47	2758.0	2521.9
25.48	2819.0	2520.0
25.49	2872.0	2518.0
25.5	2825.0	2516.1
25.51	2771.0	2514.1
25.52	2782.0	2512.2
25.53	2845.0	2510.2
25.54	2894.0	2508.3
25.55	2787.0	2506.3
25.56	2767.0	2504.4
25.57	2777.0	2502.4
25.58	2733.0	2500.4
25.59	2776.0	2498.5
25.6	2787.0	2496.5
25.61	2785.0	2494.6
25.62	2816.0	2492.6
25.63	2805.0	2490.6
25.64	2803.0	2488.7
25.65	2848.0	2486.7
25.66	2871.0	2484.7
25.67	2865.0	2482.8
25.68	2840.0	2480.8
25.69	2824.0	2478.9
25.7	2850.0	2476.9
25.71	2868.0	2474.9
25.72	2919.0	2473.0
25.73	2925.0	2471.0
25.74	2928.0	2469.0
25.75	2968.0	2467.1
25.76	2999.0	2465.1
25.77	3007.0	2463.1
25.78	3007.0	2461.1
25.79	3015.0	2459.2
25.8	2978.0	2457.2
25.81	2973.0	2455.2
25.82	2993.0	2453.3
25.83	3002.0	2451.3
25.84	3038.0	2449.3
25.85	3086.0	2447.4
25.86	3092.0	2445.4
25.87	3073.0	2443.4
25.88	3056.0	2441.4
25.89	3078.0	2439.5
25.9	3152.0	2437.5
25.91	3242.0	2435.5
25.92	3278.0	2433.6
25.93	3267.0	2431.6
25.94	3247.0	2429.6
25.95	3269.0	2427.6
25.96	3323.0	2425.7
25.97	3348.0	2423.7
25.98	3404.0	2421.7
25.99	3458.0	2419.8
26.0	3559.0	2417.8
26.01	3631.0	2415.8
26.02	3674.0	2413.8
26.03	3792.0	2411.9
26.04	3912.0	2409.9
26.05	3978.0	2407.9
26.06	4050.0	2406.0
26.07	4221.0	2404.0
26.08	4364.0	2402.0
26.09	4505.0	2400.1
26.1	4694.0	2398.1
26.11	4875.0	2396.1
26.12	5081.0	2394.2
26.13	5298.0	2392.2
26.14	5536.0	2390.2
26.15	5746.0	2388.3
26.16	5898.0	2386.3
26.17	6058.0	2384.4
26.18	6243.0	2382.4
26.19	6420.0	2380.4
26.2	6585.0	2378.5
26.21	6714.0	2376.5
26.22	6752.0	2374.5
26.23	6696.0	2372.6
26.24	6616.0	2370.6
26.25	6525.0	2368.7
26.26	6391.0	2366.7
26.27	6150.0	2364.8
26.28	5905.0	2362.8
26.29	5663.0	2360.9
26.3	5449.0	2358.9
26.31	5219.0	2357.0
26.32	4928.0	2355.0
26.33	4656.0	2353.1
26.34	4424.0	2351.1
26.35	4207.0	2349.2
26.36	4018.0	2347.2
26.37	3873.0	2345.3
26.38	3788.0	2343.3
26.39	3639.0	2341.4
26.4	3502.0	2339.4
26.41	3392.0	2337.5
26.42	3340.0	2335.6
26.43	3320.0	2333.6
26.44	3265.0	2331.7
26.45	3157.0	2329.8
26.46	3044.0	2327.8
26.47	3001.0	2325.9
26.48	3011.0	2324.0
26.49	3018.0	2322.0
26.5	2994.0	2320.1
26.51	2942.0	2318.2
26.52	2883.0	2316.3
26.53	2865.0	2314.3
26.54	2848.0	2312.4
26.55	2805.0	2310.5
26.56	2773.0	2308.6
26.57	2747.0	2306.7
26.58	2733.0	2304.7
26.59	2721.0	2302.8
26.6	2672.0	2300.9
26.61	2693.0	2299.0
26.62	2693.0	2297.1
26.63	2649.0	2295.2
26.64	2658.0	2293.3
26.65	2652.0	2291.4
26.66	2604.0	2289.5
26.67	2574.0	2287.6
26.68	2550.0	2285.7
26.69	2552.0	2283.8
26.7	2589.0	2281.9
26.71	2560.0	2280.0
26.72	2530.0	2278.1
26.73	2565.0	2276.3
26.74	2569.0	2274.4
26.75	2526.0	2272.5
26.76	2507.0	2270.6
26.77	2475.0	2268.7
26.78	2445.0	2266.9
26.79	2470.0	2265.0
26.8	2506.0	2263.1
26.81	2472.0	2261.2
26.82	2450.0	2259.4
26.83	2449.0	2257.5
26.84	2422.0	2255.6
26.85	2400.0	2253.8
26.86	2370.0	2251.9
26.87	2363.0	2250.1
26.88	2389.0	2248.2
26.89	2384.0	2246.4
26.9	2381.0	2244.5
26.91	2385.0	2242.7
26.92	2399.0	2240.8
26.93	2402.0	2239.0
26.94	2373.0	2237.2
26.95	2365.0	2235.3
26.96	2358.0	2233.5
26.97	2355.0	2231.7
26.98	2343.0	2229.8
26.99	2300.0	2228.0
27.0	2291.0	2226.2
27.01	2339.0	2224.4
27.02	2368.0	2222.6
27.03	2354.0	2220.7
27.04	2299.0	2218.9
27.05	2297.0	2217.1
27.06	2298.0	2215.3
27.07	2255.0	2213.5
27.08	2289.0	2211.7
27.09	2303.0	2209.9
27.1	2259.0	2208.1
27.11	2293.0	2206.3
27.12	2341.0	2204.6
27.13	2313.0	2202.8
27.14	2261.0	2201.0
27.15	2262.0	2199.2
27.16	2296.0	2197.4
27.17	2300.0	2195.7
27.18	2274.0	2193.9
27.19	2273.0	2192.1
27.2	2301.0	2190.4
27.21	2301.0	2188.6
27.22	2291.0	2186.9
27.23	2277.0	2185.1
27.24	2242.0	2183.4
27.25	2229.0	2181.6
27.26	2215.0	2179.9
27.27	2210.0	2178.2
27.28	2250.0	2176.4
27.29	2264.0	2174.7
27.3	2244.0	2173.0
27.31	2225.0	2171.2
27.32	2215.0	2169.5
27.33	2213.0	2167.8
27.34	2206.0	2166.1
27.35	2194.0	2164.4
27.36	2185.0	2162.7
27.37	2223.0	2161.0
27.38	2258.0	2159.3
27.39	2226.0	2157.6
27.4	2200.0	2155.9
27.41	2210.0	2154.2
27.42	2196.0	2152.5
27.43	2168.0	2150.8
27.44	2190.0	2149.2
27.45	2193.0	2147.5
27.46	2148.0	2145.8
27.47	2115.0	2144.2
27.48	2155.0	2142.5
27.49	2199.0	2140.8
27.5	2213.0	2139.2
27.51	2189.0	2137.5
27.52	2172.0	2135.9
27.53	2211.0	2134.3
27.54	2188.0	2132.6
27.55	2183.0	2131.0
27.56	2163.0	2129.4
27.57	2152.0	2127.7
27.58	2195.0	2126.1
27.59	2228.0	2124.5
27.6	2196.0	2122.9
27.61	2146.0	2121.3
27.62	2141.0	2119.7
27.63	2145.0	2118.1
27.64	2146.0	2116.5
27.65	2142.0	2114.9
27.66	2135.0	2113.3
27.67	2124.0	2111.7
27.68	2088.0	2110.2
27.69	2112.0	2108.6
27.7	2129.0	2107.0
27.71	2115.0	2105.5
27.72	2139.0	2103.9
27.73	2161.0	2102.3
27.74	2155.0	2100.8
27.75	2159.0	2099.3
27.76	2121.0	2097.7
27.77	2068.0	2096.2
27.78	2078.0	2094.6
27.79	2097.0	2093.1
27.8	2110.0	2091.6
27.81	2145.0	2090.1
27.82	2155.0	2088.6
27.83	2146.0	2087.1
27.84	2142.0	2085.6
27.85	2180.0	2084.1
27.86	2160.0	2082.6
27.87	2108.0	2081.1
27.88	2135.0	2079.6
27.89	2165.0	2078.1
27.9	2101.0	2076.6
27.91	2050.0	2075.2
27.92	2081.0	2073.7
27.93	2093.0	2072.3
27.94	2089.0	2070.8
27.95	2109.0	2069.3
27.96	2103.0	2067.9
27.97	2071.0	2066.5
27.98	2092.0	2065.0
27.99	2107.0	2063.6
28.0	2114.0	2062.2
28.01	2095.0	2060.7
28.02	2070.0	2059.3
28.03	2103.0	2057.9
28.04	2126.0	2056.5
28.05	2115.0	2055.1
28.06	2114.0	2053.7
28.07	2136.0	2052.3
28.08	2135.0	2050.9
28.09	2119.0	2049.5
28.1	2156.0	2048.1
28.11	2158.0	2046.7
28.12	2118.0	2045.3
28.13	2103.0	2044.0
28.14	2110.0	2042.6
28.15	2090.0	2041.2
28.16	2071.0	2039.9
28.17	2071.0	2038.5
28.18	2075.0	2037.2
28.19	2102.0	2035.8
28.2	2107.0	2034.5
28.21	2038.0	2033.1
28.22	2002.0	2031.8
28.23	2032.0	2030.5
28.24	2037.0	2029.2
28.25	2076.0	2027.8
28.26	2098.0	2026.5
28.27	2042.0	2025.2
28.28	2051.0	2023.9
28.29	2071.0	2022.6
28.3	2070.0	2021.3
28.31	2056.0	2020.0
28.32	2012.0	2018.7
28.33	2033.0	2017.4
28.34	2077.0	2016.1
28.35	2101.0	2014.8
28.36	2070.0	2013.6
28.37	2040.0	2012.3
28.38	2054.0	2011.0
28.39	2040.0	2009.8
28.4	2034.0	2008.5
28.41	2067.0	2007.3
28.42	2065.0	2006.0
28.43	2063.0	2004.8
28.44	2090.0	2003.5
28.45	2077.0	2002.3
28.46	2055.0	2001.0
28.47	2045.0	1999.8
28.48	2023.0	1998.6
28.49	2017.0	1997.4
28.5	2008.0	1996.1
28.51	2036.0	1994.9
28.52	2106.0	1993.7
28.53	2125.0	1992.5
28.54	2101.0	1991.3
28.55	2084.0	1990.1
28.56	2032.0	1988.9
28.57	2061.0	1987.7
28.58	2094.0	1986.5
28.59	2069.0	1985.3
28.6	2058.0	1984.1
28.61	2073.0	1983.0
28.62	2053.0	1981.8
28.63	2074.0	1980.6
28.64	2063.0	1979.5
28.65	2045.0	1978.3
28.66	2037.0	1977.1
28.67	2022.0	1976.0
28.68	2021.0	1974.8
28.69	2057.0	1973.7
28.7	2072.0	1972.5
28.71	2057.0	1971.4
28.72	2049.0	1970.3
28.73	2039.0	1969.1
28.74	2068.0	1968.0
28.75	2098.0	1966.9
28.76	2067.0	1965.8
28.77	2043.0	1964.6
28.78	2027.0	1963.5
28.79	2027.0	1962.4
28.8	1962.0	1961.3
28.81	1984.0	1960.2
28.82	2056.0	1959.1
28.83	2040.0	1958.0
28.84	2000.0	1956.9
28.85	2003.0	1955.8
28.86	2008.0	1954.7
28.87	1972.0	1953.7
28.88	1994.0	1952.6
28.89	2015.0	1951.5
28.9	2009.0	1950.4
28.91	2033.0	1949.4
28.92	2011.0	1948.3
28.93	1990.0	1947.2
28.94	2004.0	1946.2
28.95	2013.0	1945.1
28.96	1987.0	1944.1
28.97	1952.0	1943.0
28.98	1991.0	1942.0
28.99	1978.0	1940.9
29.0	1976.0	1939.9
29.01	2005.0	1938.9
29.02	1996.0	1937.8
29.03	2000.0	1936.8
29.04	1972.0	1935.8
29.05	1963.0	1934.8
29.06	1961.0	1933.7
29.07	1991.0	1932.7
29.08	2049.0	1931.7
29.09	2078.0	1930.7
29.1	2035.0	1929.7
29.11	2026.0	1928.7
29.12	2033.0	1927.7
29.13	2013.0	1926.7
29.14	1987.0	1925.7
29.15	1967.0	1924.7
29.16	1993.0	1923.7
29.17	2020.0	1922.8
29.18	2009.0	1921.8
29.19	2035.0	1920.8
29.2	1958.0	1919.8
29.21	1943.0	1918.9
29.22	1984.0	1917.9
29.23	1930.0	1916.9
29.24	1899.0	1916.0
29.25	1977.0	1915.0
29.26	2049.0	1914.1
29.27	2005.0	1913.1
29.28	2005.0	1912.2
29.29	1979.0	1911.2
29.3	1946.0	1910.3
29.31	1957.0	1909.4
29.32	1919.0	1908.4
29.33	1912.0	1907.5
29.34	1940.0	1906.6
29.35	1935.0	1905.6
29.36	1964.0	1904.7
29.37	1984.0	1903.8
29.38	1951.0	1902.9
29.39	1946.0	1902.0
29.4	1962.0	1901.0
29.41	1966.0	1900.1
29.42	1973.0	1899.2
29.43	1971.0	1898.3
29.44	1950.0	1897.4
29.45	1936.0	1896.5
29.46	1956.0	1895.6
29.47	1949.0	1894.8
29.48	1944.0	1893.9
29.49	1924.0	1893.0
29.5	1919.0	1892.1
29.51	1940.0	1891.2
29.52	1929.0	1890.3
29.53	1958.0	1889.5
29.54	2001.0	1888.6
29.55	1972.0	1887.7
29.56	1965.0	1886.9
29.57	1975.0	1886.0
29.58	1981.0	1885.1
29.59	1969.0	1884.3
29.6	1980.0	1883.4
29.61	1974.0	1882.6
29.62	1985.0	1881.7
29.63	1991.0	1880.9
29.64	1977.0	1880.0
29.65	1939.0	1879.2
29.66	1910.0	1878.4
29.67	1910.0	1877.5
29.68	1893.0	1876.7
29.69	1876.0	1875.9
29.7	1913.0	1875.0
29.71	1896.0	1874.2
29.72	1886.0	1873.4
29.73	1913.0	1872.6
29.74	1926.0	1871.8
29.75	1884.0	1870.9
29.76	1923.0	1870.1
29.77	1957.0	1869.3
29.78	1899.0	1868.5
29.79	1876.0	1867.7
29.8	1893.0	1866.9
29.81	1881.0	1866.1
29.82	1875.0	1865.3
29.83	1885.0	1864.5
29.84	1890.0	1863.7
29.85	1933.0	1862.9
29.86	1891.0	1862.2
29.87	1904.0	1861.4
29.88	1928.0	1860.6
29.89	1920.0	1859.8
29.9	1910.0	1859.0
29.91	1904.0	1858.3
29.92	1911.0	1857.5
29.93	1877.0	1856.7
29.94	1854.0	1856.0
29.95	1860.0	1855.2
29.96	1868.0	1854.4
29.97	1931.0	1853.7
29.98	1916.0	1852.9
29.99	1874.0	1852.2
30.0	1907.0	1851.4
30.01	1913.0	1850.6
30.02	1910.0	1849.9
30.03	1874.0	1849.2
30.04	1889.0	1848.4
30.05	1853.0	1847.7
30.06	1867.0	1846.9
30.07	1879.0	1846.2
30.08	1866.0	1845.5
30.09	1869.0	1844.7
30.1	1878.0	1844.0
30.11	1862.0	1843.3
30.12	1827.0	1842.5
30.13	1834.0	1841.8
30.14	1824.0	1841.1
30.15	1911.0	1840.4
30.16	1928.0	1839.7
30.17	1880.0	1838.9
30.18	1877.0	1838.2
30.19	1935.0	1837.5
30.2	1924.0	1836.8
30.21	1880.0	1836.1
30.22	1853.0	1835.4
30.23	1883.0	1834.7
30.24	1870.0	1834.0
30.25	1865.0	1833.3
30.26	1862.0	1832.6
30.27	1872.0	1831.9
30.28	1827.0	1831.2
30.29	1850.0	1830.5
30.3	1824.0	1829.8
30.31	1832.0	1829.1
30.32	1858.0	1828.4
30.33	1868.0	1827.8
30.34	1843.0	1827.1
30.35	1850.0	1826.4
30.36	1850.0	1825.7
30.37	1866.0	1825.1
30.38	1868.0	1824.4
30.39	1818.0	1823.7
30.4	1813.0	1823.0
30.41	1820.0	1822.4
30.42	1842.0	1821.7
30.43	1855.0	1821.0
30.44	1882.0	1820.4
30.45	1876.0	1819.7
30.46	1819.0	1819.1
30.47	1820.0	1818.4
30.48	1802.0	1817.7
30.49	1828.0	1817.1
30.5	1854.0	1816.4
30.51	1856.0	1815.8
30.52	1859.0	1815.1
30.53	1803.0	1814.5
30.54	1782.0	1813.9
30.55	1814.0	1813.2
30.56	1803.0	1812.6
30.57	1795.0	1811.9
30.58	1788.0	1811.3
30.59	1778.0	1810.7
30.6	1827.0	1810.0
30.61	1829.0	1809.4
30.62	1796.0	1808.8
30.63	1794.0	1808.1
30.64	1815.0	1807.5
30.65	1789.0	1806.9
30.66	1760.0	1806.3
30.67	1786.0	1805.6
30.68	1768.0	1805.0
30.69	1759.0	1804.4
30.7	1787.0	1803.8
30.71	1827.0	1803.2
30.72	1840.0	1802.5
30.73	1814.0	1801.9
30.74	1792.0	1801.3
30.75	1810.0	1800.7
30.76	1850.0	1800.1
30.77	1810.0	1799.5
30.78	1756.0	1798.9
30.79	1798.0	1798.3
30.8	1829.0	1797.7
30.81	1837.0	1797.1
30.82	1830.0	1796.5
30.83	1788.0	1795.9
30.84	1793.0	1795.3
30.85	1823.0	1794.7
30.86	1762.0	1794.1
30.87	1789.0	1793.5
30.88	1790.0	1792.9
30.89	1772.0	1792.3
30.9	1769.0	1791.7
30.91	1737.0	1791.1
30.92	1802.0	1790.5
30.93	1817.0	1790.0
30.94	1823.0	1789.4
30.95	1801.0	1788.8
30.96	1826.0	1788.2
30.97	1825.0	1787.6
30.98	1837.0	1787.0
30.99	1770.0	1786.5
31.0	1775.0	1785.9
31.01	1803.0	1785.3
31.02	1815.0	1784.7
31.03	1853.0	1784.2
31.04	1793.0	1783.6
31.05	1769.0	1783.0
31.06	1782.0	1782.5
31.07	1790.0	1781.9
31.08	1734.0	1781.3
31.09	1794.0	1780.8
31.1	1815.0	1780.2
31.11	1796.0	1779.6
31.12	1759.0	1779.1
31.13	1794.0	1778.5
31.14	1855.0	1777.9
31.15	1812.0	1777.4
31.16	1804.0	1776.8
31.17	1810.0	1776.3
31.18	1839.0	1775.7
31.19	1787.0	1775.2
31.2	1817.0	1774.6
31.21	1839.0	1774.0
31.22	1806.0	1773.5
31.23	1798.0	1772.9
31.24	1812.0	1772.4
31.25	1774.0	1771.8
31.26	1838.0	1771.3
31.27	1769.0	1770.7
31.28	1761.0	1770.2
31.29	1794.0	1769.7
31.3	1803.0	1769.1
31.31	1791.0	1768.6
31.32	1764.0	1768.0
31.33	1718.0	1767.5
31.34	1735.0	1766.9
31.35	1743.0	1766.4
31.36	1787.0	1765.9
31.37	1770.0	1765.3
31.38	1771.0	1764.8
31.39	1835.0	1764.2
31.4	1798.0	1763.7
31.41	1707.0	1763.2
31.42	1736.0	1762.6
31.43	1782.0	1762.1
31.44	1752.0	1761.6
31.45	1756.0	1761.0
31.46	1737.0	1760.5
31.47	1749.0	1760.0
31.48	1779.0	1759.5
31.49	1804.0	1758.9
31.5	1752.0	1758.4
31.51	1787.0	1757.9
31.52	1759.0	1757.3
31.53	1736.0	1756.8
31.54	1749.0	1756.3
31.55	1814.0	1755.8
31.56	1818.0	1755.2
31.57	1748.0	1754.7
31.58	1767.0	1754.2
31.59	1790.0	1753.7
31.6	1738.0	1753.2
31.61	1771.0	1752.6
31.62	1746.0	1752.1
31.63	1738.0	1751.6
31.64	1783.0	1751.1
31.65	1793.0	1750.6
31.66	1815.0	1750.0
31.67	1824.0	1749.5
31.68	1757.0	1749.0
31.69	1792.0	1748.5
31.7	1783.0	1748.0
31.71	1815.0	1747.5
31.72	1803.0	1747.0
31.73	1753.0	1746.5
31.74	1773.0	1745.9
31.75	1739.0	1745.4
31.76	1781.0	1744.9
31.77	1792.0	1744.4
31.78	1793.0	1743.9
31.79	1782.0	1743.4
31.8	1749.0	1742.9
31.81	1827.0	1742.4
31.82	1800.0	1741.9
31.83	1791.0	1741.4
31.84	1752.0	1740.9
31.85	1749.0	1740.4
31.86	1775.0	1739.9
31.87	1783.0	1739.4
31.88	1775.0	1738.9
31.89	1762.0	1738.4
31.9	1753.0	1737.9
31.91	1783.0	1737.4
31.92	1753.0	1736.9
31.93	1765.0	1736.4
31.94	1788.0	1735.9
31.95	1759.0	1735.4
31.96	1759.0	1734.9
31.97	1749.0	1734.4
31.98	1739.0	1733.9
31.99	1770.0	1733.4
32.0	1754.0	1732.9
32.01	1796.0	1732.4
32.02	1801.0	1732.0
32.03	1817.0	1731.5
32.04	1775.0	1731.0
32.05	1711.0	1730.5
32.06	1757.0	1730.0
32.07	1802.0	1729.5
32.08	1795.0	1729.0
32.09	1792.0	1728.5
32.1	1758.0	1728.1
32.11	1754.0	1727.6
32.12	1760.0	1727.1
32.13	1763.0	1726.6
32.14	1733.0	1726.1
32.15	1721.0	1725.6
32.16	1751.0	1725.2
32.17	1762.0	1724.7
32.18	1772.0	1724.2
32.19	1800.0	1723.7
32.2	1787.0	1723.3
32.21	1765.0	1722.8
32.22	1777.0	1722.3
32.23	1770.0	1721.8
32.24	1774.0	1721.3
32.25	1781.0	1720.9
32.26	1808.0	1720.4
32.27	1813.0	1719.9
32.28	1762.0	1719.5
32.29	1806.0	1719.0
32.3	1841.0	1718.5
32.31	1805.0	1718.0
32.32	1794.0	1717.6
32.33	1769.0	1717.1
32.34	1855.0	1716.6
32.35	1804.0	1716.2
32.36	1774.0	1715.7
32.37	1833.0	1715.2
32.38	1847.0	1714.8
32.39	1831.0	1714.3
32.4	1838.0	1713.8
32.41	1837.0	1713.4
32.42	1872.0	1712.9
32.43	1881.0	1712.5
32.44	1843.0	1712.0
32.45	1864.0	1711.5
32.46	1828.0	1711.1
32.47	1825.0	1710.6
32.48	1840.0	1710.2
32.49	1858.0	1709.7
32.5	1862.0	1709.2
32.51	1827.0	1708.8
32.52	1812.0	1708.3
32.53	1827.0	1707.9
32.54	1848.0	1707.4
32.55	1886.0	1707.0
32.56	1903.0	1706.5
32.57	1929.0	1706.1
32.58	1872.0	1705.6
32.59	1909.0	1705.2
32.6	1947.0	1704.7
32.61	1915.0	1704.3
32.62	1926.0	1703.8
32.63	1980.0	1703.4
32.64	1923.0	1702.9
32.65	1955.0	1702.5
32.66	1948.0	1702.0
32.67	1952.0	1701.6
32.68	1959.0	1701.1
32.69	1984.0	1700.7
32.7	2022.0	1700.2
32.71	1998.0	1699.8
32.72	2049.0	1699.3
32.73	2126.0	1698.9
32.74	2096.0	1698.5
32.75	2115.0	1698.0
32.76	2127.0	1697.6
32.77	2164.0	1697.1
32.78	2205.0	1696.7
32.79	2197.0	1696.3
32.8	2207.0	1695.8
32.81	2262.0	1695.4
32.82	2313.0	1694.9
32.83	2346.0	1694.5
32.84	2368.0	1694.1
32.85	2439.0	1693.6
32.86	2466.0	1693.2
32.87	2486.0	1692.8
32.88	2548.0	1692.3
32.89	2640.0	1691.9
32.9	2720.0	1691.5
32.91	2804.0	1691.0
32.92	2817.0	1690.6
32.93	2871.0	1690.2
32.94	2971.0	1689.8
32.95	3088.0	1689.3
32.96	3140.0	1688.9
32.97	3231.0	1688.5
32.98	3377.0	1688.0
32.99	3563.0	1687.6
33.0	3646.0	1687.2
33.01	3693.0	1686.8
33.02	3881.0	1686.3
33.03	4066.0	1685.9
33.04	4076.0	1685.5
33.05	4119.0	1685.1
33.06	4239.0	1684.6
33.07	4347.0	1684.2
33.08	4380.0	1683.8
33.09	4445.0	1683.4
33.1	4480.0	1683.0
33.11	4437.0	1682.5
33.12	4424.0	1682.1
33.13	4406.0	1681.7
33.14	4339.0	1681.3
33.15	4305.0	1680.9
33.16	4304.0	1680.4
33.17	4215.0	1680.0
33.18	4037.0	1679.6
33.19	3897.0	1679.2
33.2	3884.0	1678.8
33.21	3755.0	1678.4
33.22	3592.0	1678.0
33.23	3496.0	1677.5
33.24	3367.0	1677.1
33.25	3315.0	1676.7
33.26	3201.0	1676.3
33.27	3043.0	1675.9
33.28	2973.0	1675.5
33.29	2906.0	1675.1
33.3	2808.0	1674.7
33.31	2720.0	1674.3
33.32	2673.0	1673.9
33.33	2573.0	1673.4
33.34	2485.0	1673.0
33.35	2454.0	1672.6
33.36	2421.0	1672.2
33.37	2386.0	1671.8
33.38	2304.0	1671.4
33.39	2285.0	1671.0
33.4	2231.0	1670.6
33.41	2213.0	1670.2
33.42	2236.0	1669.8
33.43	2198.0	1669.4
33.44	2106.0	1669.0
33.45	2089.0	1668.6
33.46	2116.0	1668.2
33.47	2072.0	1667.8
33.48	2059.0	1667.4
33.49	2055.0	1667.0
33.5	2018.0	1666.6
33.51	1986.0	1666.2
33.52	1959.0	1665.8
33.53	1944.0	1665.4
33.54	1926.0	1665.0
33.55	1878.0	1664.6
33.56	1900.0	1664.2
33.57	1964.0	1663.8
33.58	1953.0	1663.4
33.59	1937.0	1663.0
33.6	1912.0	1662.7
33.61	1867.0	1662.3
33.62	1819.0	1661.9
33.63	1859.0	1661.5
33.64	1869.0	1661.1
33.65	1842.0	1660.7
33.66	1851.0	1660.3
33.67	1868.0	1659.9
33.68	1831.0	1659.5
33.69	1859.0	1659.1
33.7	1852.0	1658.8
33.71	1811.0	1658.4
33.72	1781.0	1658.0
33.73	1780.0	1657.6
33.74	1776.0	1657.2
33.75	1737.0	1656.8
33.76	1736.0	1656.4
33.77	1758.0	1656.1
33.78	1754.0	1655.7
33.79	1735.0	1655.3
33.8	1737.0	1654.9
33.81	1741.0	1654.5
33.82	1774.0	1654.1
33.83	1718.0	1653.8
33.84	1721.0	1653.4
33.85	1756.0	1653.0
33.86	1748.0	1652.6
33.87	1758.0	1652.2
33.88	1756.0	1651.9
33.89	1736.0	1651.5
33.9	1703.0	1651.1
33.91	1709.0	1650.7
33.92	1743.0	1650.3
33.93	1760.0	1650.0
33.94	1766.0	1649.6
33.95	1759.0	1649.2
33.96	1758.0	1648.8
33.97	1741.0	1648.5
33.98	1728.0	1648.1
33.99	1719.0	1647.7
34.0	1705.0	1647.3
34.01	1712.0	1647.0
34.02	1733.0	1646.6
34.03	1719.0	1646.2
34.04	1653.0	1645.9
34.05	1647.0	1645.5
34.06	1723.0	1645.1
34.07	1743.0	1644.8
34.08	1764.0	1644.4
34.09	1776.0	1644.0
34.1	1761.0	1643.6
34.11	1751.0	1643.3
34.12	1739.0	1642.9
34.13	1687.0	1642.5
34.14	1679.0	1642.2
34.15	1666.0	1641.8
34.16	1676.0	1641.4
34.17	1671.0	1641.1
34.18	1677.0	1640.7
34.19	1742.0	1640.3
34.2	1715.0	1640.0
34.21	1680.0	1639.6
34.22	1668.0	1639.3
34.23	1676.0	1638.9
34.24	1669.0	1638.5
34.25	1656.0	1638.2
34.26	1716.0	1637.8
34.27	1679.0	1637.5
34.28	1674.0	1637.1
34.29	1669.0	1636.7
34.3	1646.0	1636.4
34.31	1619.0	1636.0
34.32	1677.0	1635.7
34.33	1749.0	1635.3
34.34	1742.0	1634.9
34.35	1744.0	1634.6
34.36	1710.0	1634.2
34.37	1713.0	1633.9
34.38	1707.0	1633.5
34.39	1683.0	1633.2
34.4	1676.0	1632.8
34.41	1678.0	1632.4
34.42	1684.0	1632.1
34.43	1675.0	1631.7
34.44	1665.0	1631.4
34.45	1669.0	1631.0
34.46	1661.0	1630.7
34.47	1671.0	1630.3
34.48	1688.0	1630.0
34.49	1698.0	1629.6
34.5	1695.0	1629.3
34.51	1699.0	1628.9
34.52	1690.0	1628.6
34.53	1679.0	1628.2
34.54	1664.0	1627.9
34.55	1688.0	1627.5
34.56	1682.0	1627.2
34.57	1694.0	1626.8
34.58	1666.0	1626.5
34.59	1675.0	1626.1
34.6	1673.0	1625.8
34.61	1679.0	1625.4
34.62	1668.0	1625.1
34.63	1636.0	1624.7
34.64	1637.0	1624.4
34.65	1660.0	1624.1
34.66	1643.0	1623.7
34.67	1598.0	1623.4
34.68	1619.0	1623.0
34.69	1688.0	1622.7
34.7	1665.0	1622.3
34.71	1643.0	1622.0
34.72	1663.0	1621.7
34.73	1646.0	1621.3
34.74	1618.0	1621.0
34.75	1620.0	1620.6
34.76	1640.0	1620.3
34.77	1686.0	1619.9
34.78	1683.0	1619.6
34.79	1653.0	1619.3
34.8	1669.0	1618.9
34.81	1693.0	1618.6
34.82	1702.0	1618.3
34.83	1698.0	1617.9
34.84	1703.0	1617.6
34.85	1707.0	1617.2
34.86	1668.0	1616.9
34.87	1643.0	1616.6
34.88	1654.0	1616.2
34.89	1664.0	1615.9
34.9	1636.0	1615.6
34.91	1631.0	1615.2
34.92	1645.0	1614.9
34.93	1620.0	1614.6
34.94	1650.0	1614.2
34.95	1661.0	1613.9
34.96	1684.0	1613.6
34.97	1689.0	1613.2
34.98	1618.0	1612.9
34.99	1608.0	1612.6
35.0	1655.0	1612.2
35.01	1632.0	1611.9
35.02	1617.0	1611.6
35.03	1621.0	1611.2
35.04	1642.0	1610.9
35.05	1655.0	1610.6
35.06	1629.0	1610.2
35.07	1612.0	1609.9
35.08	1614.0	1609.6
35.09	1583.0	1609.3
35.1	1605.0	1608.9
35.11	1591.0	1608.6
35.12	1579.0	1608.3
35.13	1616.0	1607.9
35.14	1617.0	1607.6
35.15	1579.0	1607.3
35.16	1547.0	1607.0
35.17	1568.0	1606.6
35.18	1592.0	1606.3
35.19	1607.0	1606.0
35.2	1633.0	1605.7
35.21	1641.0	1605.3
35.22	1620.0	1605.0
35.23	1633.0	1604.7
35.24	1648.0	1604.4
35.25	1620.0	1604.0
35.26	1605.0	1603.7
35.27	1616.0	1603.4
35.28	1600.0	1603.1
35.29	1568.0	1602.7
35.3	1573.0	1602.4
35.31	1619.0	1602.1
35.32	1656.0	1601.8
35.33	1636.0	1601.5
35.34	1614.0	1601.1
35.35	1627.0	1600.8
35.36	1642.0	1600.5
35.37	1634.0	1600.2
35.38	1660.0	1599.9
35.39	1662.0	1599.5
35.4	1626.0	1599.2
35.41	1601.0	1598.9
35.42	1630.0	1598.6
35.43	1635.0	1598.3
35.44	1614.0	1598.0
35.45	1603.0	1597.6
35.46	1588.0	1597.3
35.47	1605.0	1597.0
35.48	1623.0	1596.7
35.49	1596.0	1596.4
35.5	1598.0	1596.1
35.51	1604.0	1595.7
35.52	1597.0	1595.4
35.53	1609.0	1595.1
35.54	1629.0	1594.8
35.55	1650.0	1594.5
35.56	1663.0	1594.2
35.57	1658.0	1593.9
35.58	1628.0	1593.5
35.59	1629.0	1593.2
35.6	1648.0	1592.9
35.61	1622.0	1592.6
35.62	1599.0	1592.3
35.63	1616.0	1592.0
35.64	1647.0	1591.7
35.65	1652.0	1591.4
35.66	1652.0	1591.0
35.67	1641.0	1590.7
35.68	1614.0	1590.4
35.69	1612.0	1590.1
35.7	1628.0	1589.8
35.71	1605.0	1589.5
35.72	1604.0	1589.2
35.73	1623.0	1588.9
35.74	1619.0	1588.6
35.75	1615.0	1588.3
35.76	1612.0	1587.9
35.77	1599.0	1587.6
35.78	1589.0	1587.3
35.79	1608.0	1587.0
35.8	1608.0	1586.7
35.81	1584.0	1586.4
35.82	1575.0	1586.1
35.83	1579.0	1585.8
35.84	1625.0	1585.5
35.85	1640.0	1585.2
35.86	1607.0	1584.9
35.87	1592.0	1584.6
35.88	1608.0	1584.3
35.89	1602.0	1584.0
35.9	1606.0	1583.7
35.91	1600.0	1583.3
35.92	1574.0	1583.0
35.93	1571.0	1582.7
35.94	1590.0	1582.4
35.95	1636.0	1582.1
35.96	1629.0	1581.8
35.97	1613.0	1581.5
35.98	1587.0	1581.2
35.99	1566.0	1580.9
36.0	1575.0	1580.6
36.01	1561.0	1580.3
36.02	1571.0	1580.0
36.03	1592.0	1579.7
36.04	1589.0	1579.4
36.05	1610.0	1579.1
36.06	1631.0	1578.8
36.07	1624.0	1578.5
36.08	1614.0	1578.2
36.09	1599.0	1577.9
36.1	1594.0	1577.6
36.11	1613.0	1577.3
36.12	1602.0	1577.0
36.13	1592.0	1576.7
36.14	1620.0	1576.4
36.15	1616.0	1576.1
36.16	1588.0	1575.8
36.17	1582.0	1575.5
36.18	1588.0	1575.2
36.19	1627.0	1574.9
36.2	1624.0	1574.6
36.21	1600.0	1574.3
36.22	1602.0	1574.0
36.23	1602.0	1573.7
36.24	1596.0	1573.4
36.25	1577.0	1573.1
36.26	1557.0	1572.8
36.27	1558.0	1572.5
36.28	1592.0	1572.2
36.29	1606.0	1571.9
36.3	1590.0	1571.6
36.31	1610.0	1571.3
36.32	1619.0	1571.0
36.33	1588.0	1570.8
36.34	1593.0	1570.5
36.35	1610.0	1570.2
36.36	1599.0	1569.9
36.37	1588.0	1569.6
36.38	1612.0	1569.3
36.39	1593.0	1569.0
36.4	1553.0	1568.7
36.41	1575.0	1568.4
36.42	1575.0	1568.1
36.43	1581.0	1567.8
36.44	1585.0	1567.5
36.45	1572.0	1567.2
36.46	1566.0	1566.9
36.47	1547.0	1566.6
36.48	1577.0	1566.3
36.49	1617.0	1566.0
36.5	1591.0	1565.8
36.51	1579.0	1565.5
36.52	1583.0	1565.2
36.53	1561.0	1564.9
36.54	1555.0	1564.6
36.55	1552.0	1564.3
36.56	1553.0	1564.0
36.57	1557.0	1563.7
36.58	1591.0	1563.4
36.59	1591.0	1563.1
36.6	1521.0	1562.8
36.61	1516.0	1562.6
36.62	1555.0	1562.3
36.63	1562.0	1562.0
36.64	1580.0	1561.7
36.65	1586.0	1561.4
36.66	1584.0	1561.1
36.67	1595.0	1560.8
36.68	1587.0	1560.5
36.69	1567.0	1560.2
36.7	1572.0	1559.9
36.71	1605.0	1559.7
36.72	1612.0	1559.4
36.73	1597.0	1559.1
36.74	1592.0	1558.8
36.75	1609.0	1558.5
36.76	1626.0	1558.2
36.77	1605.0	1557.9
36.78	1568.0	1557.6
36.79	1553.0	1557.3
36.8	1593.0	1557.1
36.81	1631.0	1556.8
36.82	1651.0	1556.5
36.83	1644.0	1556.2
36.84	1598.0	1555.9
36.85	1610.0	1555.6
36.86	1626.0	1555.3
36.87	1629.0	1555.0
36.88	1617.0	1554.8
36.89	1621.0	1554.5
36.9	1611.0	1554.2
36.91	1594.0	1553.9
36.92	1629.0	1553.6
36.93	1643.0	1553.3
36.94	1629.0	1553.0
36.95	1637.0	1552.8
36.96	1635.0	1552.5
36.97	1632.0	1552.2
36.98	1638.0	1551.9
36.99	1641.0	1551.6
37.0	1654.0	1551.3
37.01	1686.0	1551.0
37.02	1696.0	1550.8
37.03	1695.0	1550.5
37.04	1698.0	1550.2
37.05	1708.0	1549.9
37.06	1718.0	1549.6
37.07	1712.0	1549.3
37.08	1695.0	1549.0
37.09	1675.0	1548.8
37.1	1693.0	1548.5
37.11	1746.0	1548.2
37.12	1746.0	1547.9
37.13	1756.0	1547.6
37.14	1774.0	1547.3
37.15	1743.0	1547.1
37.16	1741.0	1546.8
37.17	1765.0	1546.5
37.18	1785.0	1546.2
37.19	1804.0	1545.9
37.2	1825.0	1545.6
37.21	1845.0	1545.4
37.22	1846.0	1545.1
37.23	1864.0	1544.8
37.24	1851.0	1544.5
37.25	1828.0	1544.2
37.26	1842.0	1543.9
37.27	1859.0	1543.7
37.28	1863.0	1543.4
37.29	1825.0	1543.1
37.3	1804.0	1542.8
37.31	1795.0	1542.5
37.32	1761.0	1542.3
37.33	1772.0	1542.0
37.34	1802.0	1541.7
37.35	1772.0	1541.4
37.36	1729.0	1541.1
37.37	1755.0	1540.8
37.38	1757.0	1540.6
37.39	1723.0	1540.3
37.4	1722.0	1540.0
37.41	1724.0	1539.7
37.42	1721.0	1539.4
37.43	1712.0	1539.1
37.44	1706.0	1538.9
37.45	1688.0	1538.6
37.46	1674.0	1538.3
37.47	1696.0	1538.0
37.48	1711.0	1537.7
37.49	1713.0	1537.5
37.5	1709.0	1537.2
37.51	1725.0	1536.9
37.52	1716.0	1536.6
37.53	1710.0	1536.3
37.54	1694.0	1536.1
37.55	1688.0	1535.8
37.56	1688.0	1535.5
37.57	1703.0	1535.2
37.58	1722.0	1534.9
37.59	1718.0	1534.7
37.6	1706.0	1534.4
37.61	1681.0	1534.1
37.62	1699.0	1533.8
37.63	1739.0	1533.5
37.64	1741.0	1533.2
37.65	1752.0	1533.0
37.66	1740.0	1532.7
37.67	1702.0	1532.4
37.68	1715.0	1532.1
37.69	1776.0	1531.8
37.7	1773.0	1531.6
37.71	1781.0	1531.3
37.72	1835.0	1531.0
37.73	1838.0	1530.7
37.74	1847.0	1530.4
37.75	1843.0	1530.2
37.76	1856.0	1529.9
37.77	1848.0	1529.6
37.78	1844.0	1529.3
37.79	1871.0	1529.0
37.8	1914.0	1528.8
37.81	1974.0	1528.5
37.82	1964.0	1528.2
37.83	1952.0	1527.9
37.84	1998.0	1527.6
37.85	2052.0	1527.4
37.86	2082.0	1527.1
37.87	2098.0	1526.8
37.88	2177.0	1526.5
37.89	2240.0	1526.2
37.9	2277.0	1526.0
37.91	2317.0	1525.7
37.92	2413.0	1525.4
37.93	2462.0	1525.1
37.94	2491.0	1524.8
37.95	2531.0	1524.6
37.96	2560.0	1524.3
37.97	2627.0	1524.0
37.98	2707.0	1523.7
37.99	2741.0	1523.4
38.0	2767.0	1523.2
38.01	2920.0	1522.9
38.02	3033.0	1522.6
38.03	3032.0	1522.3
38.04	3032.0	1522.0
38.05	3089.0	1521.8
38.06	3130.0	1521.5
38.07	3118.0	1521.2
38.08	3083.0	1520.9
38.09	3040.0	1520.6
38.1	3018.0	1520.4
38.11	3005.0	1520.1
38.12	3016.0	1519.8
38.13	2989.0	1519.5
38.14	2914.0	1519.2
38.15	2874.0	1519.0
38.16	2849.0	1518.7
38.17	2749.0	1518.4
38.18	2655.0	1518.1
38.19	2620.0	1517.8
38.2	2530.0	1517.6
38.21	2437.0	1517.3
38.22	2390.0	1517.0
38.23	2347.0	1516.7
38.24	2328.0	1516.4
38.25	2284.0	1516.2
38.26	2206.0	1515.9
38.27	2175.0	1515.6
38.28	2139.0	1515.3
38.29	2081.0	1515.0
38.3	2078.0	1514.8
38.31	2016.0	1514.5
38.32	1949.0	1514.2
38.33	1934.0	1513.9
38.34	1916.0	1513.6
38.35	1912.0	1513.4
38.36	1933.0	1513.1
38.37	1860.0	1512.8
38.38	1798.0	1512.5
38.39	1776.0	1512.2
38.4	1782.0	1511.9
38.41	1838.0	1511.7
38.42	1789.0	1511.4
38.43	1729.0	1511.1
38.44	1727.0	1510.8
38.45	1713.0	1510.5
38.46	1693.0	1510.3
38.47	1727.0	1510.0
38.48	1746.0	1509.7
38.49	1712.0	1509.4
38.5	1706.0	1509.1
38.51	1676.0	1508.9
38.52	1668.0	1508.6
38.53	1662.0	1508.3
38.54	1649.0	1508.0
38.55	1665.0	1507.7
38.56	1683.0	1507.4
38.57	1680.0	1507.2
38.58	1657.0	1506.9
38.59	1626.0	1506.6
38.6	1621.0	1506.3
38.61	1635.0	1506.0
38.62	1601.0	1505.7
38.63	1598.0	1505.5
38.64	1613.0	1505.2
38.65	1599.0	1504.9
38.66	1586.0	1504.6
38.67	1579.0	1504.3
38.68	1549.0	1504.0
38.69	1609.0	1503.8
38.7	1660.0	1503.5
38.71	1637.0	1503.2
38.72	1613.0	1502.9
38.73	1610.0	1502.6
38.74	1602.0	1502.3
38.75	1581.0	1502.1
38.76	1561.0	1501.8
38.77	1608.0	1501.5
38.78	1645.0	1501.2
38.79	1620.0	1500.9
38.8	1598.0	1500.6
38.81	1570.0	1500.4
38.82	1556.0	1500.1
38.83	1560.0	1499.8
38.84	1532.0	1499.5
38.85	1525.0	1499.2
38.86	1500.0	1498.9
38.87	1473.0	1498.6
38.88	1525.0	1498.4
38.89	1541.0	1498.1
38.9	1558.0	1497.8
38.91	1532.0	1497.5
38.92	1568.0	1497.2
38.93	1580.0	1496.9
38.94	1548.0	1496.7
38.95	1565.0	1496.4
38.96	1571.0	1496.1
38.97	1556.0	1495.8
38.98	1556.0	1495.5
38.99	1566.0	1495.2
39.0	1553.0	1494.9
39.01	1569.0	1494.6
39.02	1579.0	1494.4
39.03	1563.0	1494.1
39.04	1573.0	1493.8
39.05	1568.0	1493.5
39.06	1528.0	1493.2
39.07	1501.0	1492.9
39.08	1521.0	1492.6
39.09	1552.0	1492.4
39.1	1551.0	1492.1
39.11	1531.0	1491.8
39.12	1522.0	1491.5
39.13	1540.0	1491.2
39.14	1567.0	1490.9
39.15	1535.0	1490.6
39.16	1540.0	1490.3
39.17	1537.0	1490.0
39.18	1539.0	1489.8
39.19	1528.0	1489.5
39.2	1530.0	1489.2
39.21	1545.0	1488.9
39.22	1535.0	1488.6
39.23	1574.0	1488.3
39.24	1556.0	1488.0
39.25	1513.0	1487.7
39.26	1513.0	1487.5
39.27	1528.0	1487.2
39.28	1521.0	1486.9
39.29	1476.0	1486.6
39.3	1500.0	1486.3
39.31	1527.0	1486.0
39.32	1499.0	1485.7
39.33	1509.0	1485.4
39.34	1519.0	1485.1
39.35	1522.0	1484.8
39.36	1503.0	1484.6
39.37	1530.0	1484.3
39.38	1528.0	1484.0
39.39	1514.0	1483.7
39.4	1517.0	1483.4
39.41	1496.0	1483.1
39.42	1518.0	1482.8
39.43	1528.0	1482.5
39.44	1510.0	1482.2
39.45	1538.0	1482.0
39.46	1535.0	1481.7
39.47	1539.0	1481.4
39.48	1520.0	1481.1
39.49	1498.0	1480.8
39.5	1513.0	1480.5
39.51	1505.0	1480.2
39.52	1512.0	1479.9
39.53	1511.0	1479.6
39.54	1484.0	1479.3
39.55	1487.0	1479.0
39.56	1531.0	1478.8
39.57	1508.0	1478.5
39.58	1490.0	1478.2
39.59	1471.0	1477.9
39.6	1537.0	1477.6
39.61	1540.0	1477.3
39.62	1505.0	1477.0
39.63	1465.0	1476.7
39.64	1465.0	1476.4
39.65	1500.0	1476.1
39.66	1513.0	1475.8
39.67	1550.0	1475.5
39.68	1548.0	1475.3
39.69	1537.0	1475.0
39.7	1519.0	1474.7
39.71	1530.0	1474.4
39.72	1533.0	1474.1
39.73	1531.0	1473.8
39.74	1516.0	1473.5
39.75	1497.0	1473.2
39.76	1488.0	1472.9
39.77	1459.0	1472.6
39.78	1487.0	1472.3
39.79	1524.0	1472.0
39.8	1519.0	1471.8
39.81	1520.0	1471.5
39.82	1550.0	1471.2
39.83	1577.0	1470.9
39.84	1547.0	1470.6
39.85	1529.0	1470.3
39.86	1542.0	1470.0
39.87	1488.0	1469.7
39.88	1491.0	1469.4
39.89	1502.0	1469.1
39.9	1486.0	1468.8
39.91	1460.0	1468.5
39.92	1467.0	1468.2
39.93	1535.0	1468.0
39.94	1522.0	1467.7
39.95	1516.0	1467.4
39.96	1507.0	1467.1
39.97	1508.0	1466.8
39.98	1533.0	1466.5
39.99	1539.0	1466.2
40.0	1492.0	1465.9
40.01	1548.0	1465.6
40.02	1530.0	1465.3
40.03	1505.0	1465.0
40.04	1532.0	1464.7
40.05	1476.0	1464.4
40.06	1510.0	1464.1
40.07	1492.0	1463.9
40.08	1463.0	1463.6
40.09	1517.0	1463.3
40.1	1553.0	1463.0
40.11	1557.0	1462.7
40.12	1548.0	1462.4
40.13	1523.0	1462.1
40.14	1490.0	1461.8
40.15	1481.0	1461.5
40.16	1496.0	1461.2
40.17	1487.0	1460.9
40.18	1490.0	1460.6
40.19	1467.0	1460.3
40.2	1475.0	1460.0
40.21	1495.0	1459.8
40.22	1462.0	1459.5
40.23	1469.0	1459.2
40.24	1448.0	1458.9
40.25	1467.0	1458.6
40.26	1486.0	1458.3
40.27	1519.0	1458.0
40.28	1522.0	1457.7
40.29	1490.0	1457.4
40.3	1510.0	1457.1
40.31	1501.0	1456.8
40.32	1487.0	1456.5
40.33	1509.0	1456.2
40.34	1467.0	1455.9
40.35	1506.0	1455.6
40.36	1530.0	1455.4
40.37	1471.0	1455.1
40.38	1449.0	1454.8
40.39	1484.0	1454.5
40.4	1480.0	1454.2
40.41	1535.0	1453.9
40.42	1538.0	1453.6
40.43	1538.0	1453.3
40.44	1496.0	1453.0
40.45	1501.0	1452.7
40.46	1488.0	1452.4
40.47	1476.0	1452.1
40.48	1450.0	1451.8
40.49	1463.0	1451.5
40.5	1466.0	1451.3
40.51	1477.0	1451.0
40.52	1497.0	1450.7
40.53	1526.0	1450.4
40.54	1510.0	1450.1
40.55	1537.0	1449.8
40.56	1511.0	1449.5
40.57	1458.0	1449.2
40.58	1458.0	1448.9
40.59	1488.0	1448.6
40.6	1496.0	1448.3
40.61	1492.0	1448.0
40.62	1501.0	1447.7
40.63	1564.0	1447.4
40.64	1497.0	1447.1
40.65	1473.0	1446.9
40.66	1495.0	1446.6
40.67	1496.0	1446.3
40.68	1547.0	1446.0
40.69	1522.0	1445.7
40.7	1496.0	1445.4
40.71	1461.0	1445.1
40.72	1513.0	1444.8
40.73	1492.0	1444.5
40.74	1472.0	1444.2
40.75	1472.0	1443.9
40.76	1428.0	1443.6
40.77	1389.0	1443.3
40.78	1435.0	1443.1
40.79	1487.0	1442.8
40.8	1496.0	1442.5
40.81	1498.0	1442.2
40.82	1525.0	1441.9
40.83	1522.0	1441.6
40.84	1452.0	1441.3
40.85	1518.0	1441.0
40.86	1467.0	1440.7
40.87	1468.0	1440.4
40.88	1496.0	1440.1
40.89	1521.0	1439.8
40.9	1519.0	1439.5
40.91	1496.0	1439.3
40.92	1459.0	1439.0
40.93	1492.0	1438.7
40.94	1514.0	1438.4
40.95	1513.0	1438.1
40.96	1526.0	1437.8
40.97	1502.0	1437.5
40.98	1459.0	1437.2
40.99	1450.0	1436.9
41.0	1507.0	1436.6
41.01	1483.0	1436.3
41.02	1434.0	1436.0
41.03	1450.0	1435.8
41.04	1471.0	1435.5
41.05	1466.0	1435.2
41.06	1496.0	1434.9
41.07	1500.0	1434.6
41.08	1481.0	1434.3
41.09	1470.0	1434.0
41.1	1515.0	1433.7
41.11	1500.0	1433.4
41.12	1508.0	1433.1
41.13	1485.0	1432.8
41.14	1469.0	1432.6
41.15	1521.0	1432.3
41.16	1491.0	1432.0
41.17	1449.0	1431.7
41.18	1497.0	1431.4
41.19	1492.0	1431.1
41.2	1475.0	1430.8
41.21	1521.0	1430.5
41.22	1506.0	1430.2
41.23	1457.0	1429.9
41.24	1499.0	1429.7
41.25	1553.0	1429.4
41.26	1535.0	1429.1
41.27	1506.0	1428.8
41.28	1505.0	1428.5
41.29	1503.0	1428.2
41.3	1470.0	1427.9
41.31	1475.0	1427.6
41.32	1489.0	1427.3
41.33	1500.0	1427.0
41.34	1493.0	1426.8
41.35	1502.0	1426.5
41.36	1551.0	1426.2
41.37	1537.0	1425.9
41.38	1510.0	1425.6
41.39	1538.0	1425.3
41.4	1562.0	1425.0
41.41	1581.0	1424.7
41.42	1552.0	1424.4
41.43	1531.0	1424.2
41.44	1523.0	1423.9
41.45	1574.0	1423.6
41.46	1588.0	1423.3
41.47	1530.0	1423.0
41.48	1540.0	1422.7
41.49	1570.0	1422.4
41.5	1569.0	1422.1
41.51	1579.0	1421.8
41.52	1604.0	1421.6
41.53	1623.0	1421.3
41.54	1587.0	1421.0
41.55	1595.0	1420.7
41.56	1672.0	1420.4
41.57	1665.0	1420.1
41.58	1661.0	1419.8
41.59	1680.0	1419.6
41.6	1683.0	1419.3
41.61	1650.0	1419.0
41.62	1660.0	1418.7
41.63	1729.0	1418.4
41.64	1709.0	1418.1
41.65	1728.0	1417.8
41.66	1761.0	1417.5
41.67	1719.0	1417.3
41.68	1745.0	1417.0
41.69	1804.0	1416.7
41.7	1782.0	1416.4
41.71	1843.0	1416.1
41.72	1882.0	1415.8
41.73	1891.0	1415.5
41.74	1883.0	1415.3
41.75	1909.0	1415.0
41.76	1849.0	1414.7
41.77	1857.0	1414.4
41.78	1821.0	1414.1
41.79	1841.0	1413.8
41.8	1866.0	1413.5
41.81	1842.0	1413.3
41.82	1851.0	1413.0
41.83	1797.0	1412.7
41.84	1783.0	1412.4
41.85	1810.0	1412.1
41.86	1781.0	1411.8
41.87	1759.0	1411.6
41.88	1702.0	1411.3
41.89	1711.0	1411.0
41.9	1729.0	1410.7
41.91	1667.0	1410.4
41.92	1674.0	1410.1
41.93	1667.0	1409.9
41.94	1635.0	1409.6
41.95	1644.0	1409.3
41.96	1628.0	1409.0
41.97	1678.0	1408.7
41.98	1645.0	1408.4
41.99	1622.0	1408.2
42.0	1586.0	1407.9
42.01	1569.0	1407.6
42.02	1557.0	1407.3
42.03	1544.0	1407.0
42.04	1545.0	1406.7
42.05	1495.0	1406.5
42.06	1513.0	1406.2
42.07	1545.0	1405.9
42.08	1533.0	1405.6
42.09	1524.0	1405.3
42.1	1545.0	1405.1
42.11	1549.0	1404.8
42.12	1504.0	1404.5
42.13	1499.0	1404.2
42.14	1501.0	1403.9
42.15	1486.0	1403.6
42.16	1503.0	1403.4
42.17	1508.0	1403.1
42.18	1498.0	1402.8
42.19	1489.0	1402.5
42.2	1464.0	1402.2
42.21	1436.0	1402.0
42.22	1475.0	1401.7
42.23	1500.0	1401.4
42.24	1464.0	1401.1
42.25	1438.0	1400.9
42.26	1446.0	1400.6
42.27	1456.0	1400.3
42.28	1505.0	1400.0
42.29	1524.0	1399.7
42.3	1489.0	1399.5
42.31	1482.0	1399.2
42.32	1470.0	1398.9
42.33	1472.0	1398.6
42.34	1488.0	1398.3
42.35	1469.0	1398.1
42.36	1432.0	1397.8
42.37	1441.0	1397.5
42.38	1515.0	1397.2
42.39	1461.0	1397.0
42.4	1432.0	1396.7
42.41	1461.0	1396.4
42.42	1473.0	1396.1
42.43	1446.0	1395.9
42.44	1436.0	1395.6
42.45	1459.0	1395.3
42.46	1482.0	1395.0
42.47	1488.0	1394.7
42.48	1462.0	1394.5
42.49	1453.0	1394.2
42.5	1474.0	1393.9
42.51	1459.0	1393.6
42.52	1391.0	1393.4
42.53	1481.0	1393.1
42.54	1476.0	1392.8
42.55	1487.0	1392.5
42.56	1478.0	1392.3
42.57	1452.0	1392.0
42.58	1458.0	1391.7
42.59	1428.0	1391.5
42.6	1455.0	1391.2
42.61	1475.0	1390.9
42.62	1454.0	1390.6
42.63	1443.0	1390.4
42.64	1460.0	1390.1
42.65	1473.0	1389.8
42.66	1455.0	1389.5
42.67	1451.0	1389.3
42.68	1467.0	1389.0
42.69	1506.0	1388.7
42.7	1457.0	1388.5
42.71	1468.0	1388.2
42.72	1466.0	1387.9
42.73	1475.0	1387.6
42.74	1446.0	1387.4
42.75	1469.0	1387.1
42.76	1444.0	1386.8
42.77	1491.0	1386.6
42.78	1430.0	1386.3
42.79	1444.0	1386.0
42.8	1449.0	1385.7
42.81	1468.0	1385.5
42.82	1526.0	1385.2
42.83	1514.0	1384.9
42.84	1430.0	1384.7
42.85	1479.0	1384.4
42.86	1486.0	1384.1
42.87	1433.0	1383.9
42.88	1458.0	1383.6
42.89	1445.0	1383.3
42.9	1420.0	1383.1
42.91	1443.0	1382.8
42.92	1454.0	1382.5
42.93	1415.0	1382.3
42.94	1440.0	1382.0
42.95	1450.0	1381.7
42.96	1458.0	1381.5
42.97	1462.0	1381.2
42.98	1455.0	1380.9
42.99	1459.0	1380.7
43.0	1468.0	1380.4
43.01	1481.0	1380.1
43.02	1497.0	1379.9
43.03	1467.0	1379.6
43.04	1426.0	1379.3
43.05	1431.0	1379.1
43.06	1450.0	1378.8
43.07	1459.0	1378.5
43.08	1480.0	1378.3
43.09	1442.0	1378.0
43.1	1405.0	1377.7
43.11	1407.0	1377.5
43.12	1419.0	1377.2
43.13	1456.0	1377.0
43.14	1453.0	1376.7
43.15	1443.0	1376.4
43.16	1441.0	1376.2
43.17	1394.0	1375.9
43.18	1431.0	1375.6
43.19	1426.0	1375.4
43.2	1461.0	1375.1
43.21	1430.0	1374.9
43.22	1383.0	1374.6
43.23	1444.0	1374.3
43.24	1440.0	1374.1
43.25	1488.0	1373.8
43.26	1464.0	1373.5
43.27	1428.0	1373.3
43.28	1428.0	1373.0
43.29	1455.0	1372.8
43.3	1474.0	1372.5
43.31	1453.0	1372.3
43.32	1493.0	1372.0
43.33	1485.0	1371.7
43.34	1495.0	1371.5
43.35	1490.0	1371.2
43.36	1453.0	1371.0
43.37	1419.0	1370.7
43.38	1401.0	1370.4
43.39	1441.0	1370.2
43.4	1490.0	1369.9
43.41	1434.0	1369.7
43.42	1446.0	1369.4
43.43	1402.0	1369.2
43.44	1395.0	1368.9
43.45	1401.0	1368.6
43.46	1438.0	1368.4
43.47	1441.0	1368.1
43.48	1466.0	1367.9
43.49	1491.0	1367.6
43.5	1449.0	1367.4
43.51	1457.0	1367.1
43.52	1422.0	1366.9
43.53	1424.0	1366.6
43.54	1451.0	1366.4
43.55	1413.0	1366.1
43.56	1379.0	1365.8
43.57	1386.0	1365.6
43.58	1420.0	1365.3
43.59	1450.0	1365.1
43.6	1460.0	1364.8
43.61	1438.0	1364.6
43.62	1473.0	1364.3
43.63	1433.0	1364.1
43.64	1414.0	1363.8
43.65	1425.0	1363.6
43.66	1446.0	1363.3
43.67	1446.0	1363.1
43.68	1407.0	1362.8
43.69	1399.0	1362.6
43.7	1428.0	1362.3
43.71	1422.0	1362.1
43.72	1413.0	1361.8
43.73	1380.0	1361.6
43.74	1387.0	1361.3
43.75	1391.0	1361.1
43.76	1413.0	1360.8
43.77	1426.0	1360.6
43.78	1422.0	1360.3
43.79	1389.0	1360.1
43.8	1349.0	1359.8
43.81	1398.0	1359.6
43.82	1399.0	1359.3
43.83	1430.0	1359.1
43.84	1393.0	1358.9
43.85	1373.0	1358.6
43.86	1416.0	1358.4
43.87	1440.0	1358.1
43.88	1393.0	1357.9
43.89	1437.0	1357.6
43.9	1441.0	1357.4
43.91	1400.0	1357.1
43.92	1383.0	1356.9
43.93	1410.0	1356.7
43.94	1425.0	1356.4
43.95	1430.0	1356.2
43.96	1435.0	1355.9
43.97	1433.0	1355.7
43.98	1464.0	1355.4
43.99	1426.0	1355.2
44.0	1381.0	1355.0
44.01	1388.0	1354.7
44.02	1370.0	1354.5
44.03	1429.0	1354.2
44.04	1448.0	1354.0
44.05	1430.0	1353.7
44.06	1402.0	1353.5
44.07	1398.0	1353.3
44.08	1410.0	1353.0
44.09	1405.0	1352.8
44.1	1425.0	1352.6
44.11	1455.0	1352.3
44.12	1459.0	1352.1
44.13	1429.0	1351.8
44.14	1403.0	1351.6
44.15	1380.0	1351.4
44.16	1384.0	1351.1
44.17	1400.0	1350.9
44.18	1376.0	1350.6
44.19	1339.0	1350.4
44.2	1386.0	1350.2
44.21	1412.0	1349.9
44.22	1382.0	1349.7
44.23	1414.0	1349.5
44.24	1396.0	1349.2
44.25	1378.0	1349.0
44.26	1401.0	1348.8
44.27	1423.0	1348.5
44.28	1469.0	1348.3
44.29	1454.0	1348.1
44.3	1443.0	1347.8
44.31	1391.0	1347.6
44.32	1398.0	1347.4
44.33	1400.0	1347.1
44.34	1401.0	1346.9
44.35	1408.0	1346.7
44.36	1424.0	1346.4
44.37	1448.0	1346.2
44.38	1427.0	1346.0
44.39	1409.0	1345.8
44.4	1383.0	1345.5
44.41	1362.0	1345.3
44.42	1392.0	1345.1
44.43	1406.0	1344.8
44.44	1400.0	1344.6
44.45	1414.0	1344.4
44.46	1431.0	1344.1
44.47	1422.0	1343.9
44.48	1409.0	1343.7
44.49	1384.0	1343.5
44.5	1388.0	1343.2
44.51	1361.0	1343.0
44.52	1309.0	1342.8
44.53	1343.0	1342.6
44.54	1415.0	1342.3
44.55	1422.0	1342.1
44.56	1403.0	1341.9
44.57	1406.0	1341.7
44.58	1419.0	1341.4
44.59	1415.0	1341.2
44.6	1416.0	1341.0
44.61	1436.0	1340.8
44.62	1412.0	1340.5
44.63	1399.0	1340.3
44.64	1400.0	1340.1
44.65	1388.0	1339.9
44.66	1411.0	1339.7
44.67	1412.0	1339.4
44.68	1411.0	1339.2
44.69	1393.0	1339.0
44.7	1374.0	1338.8
44.71	1411.0	1338.6
44.72	1385.0	1338.3
44.73	1389.0	1338.1
44.74	1400.0	1337.9
44.75	1430.0	1337.7
44.76	1384.0	1337.5
44.77	1364.0	1337.2
44.78	1380.0	1337.0
44.79	1385.0	1336.8
44.8	1381.0	1336.6
44.81	1379.0	1336.4
44.82	1377.0	1336.2
44.83	1377.0	1335.9
44.84	1370.0	1335.7
44.85	1379.0	1335.5
44.86	1370.0	1335.3
44.87	1384.0	1335.1
44.88	1338.0	1334.9
44.89	1383.0	1334.7
44.9	1425.0	1334.4
44.91	1383.0	1334.2
44.92	1382.0	1334.0
44.93	1402.0	1333.8
44.94	1368.0	1333.6
44.95	1374.0	1333.4
44.96	1373.0	1333.2
44.97	1363.0	1333.0
44.98	1374.0	1332.7
44.99	1393.0	1332.5
45.0	1354.0	1332.3
45.01	1365.0	1332.1
45.02	1395.0	1331.9
45.03	1434.0	1331.7
45.04	1434.0	1331.5
45.05	1429.0	1331.3
45.06	1418.0	1331.1
45.07	1382.0	1330.9
45.08	1376.0	1330.7
45.09	1361.0	1330.4
45.1	1401.0	1330.2
45.11	1384.0	1330.0
45.12	1373.0	1329.8
45.13	1392.0	1329.6
45.14	1360.0	1329.4
45.15	1357.0	1329.2
45.16	1380.0	1329.0
45.17	1386.0	1328.8
45.18	1402.0	1328.6
45.19	1402.0	1328.4
45.2	1383.0	1328.2
45.21	1378.0	1328.0
45.22	1376.0	1327.8
45.23	1381.0	1327.6
45.24	1349.0	1327.4
45.25	1359.0	1327.2
45.26	1323.0	1327.0
45.27	1325.0	1326.8
45.28	1310.0	1326.6
45.29	1384.0	1326.4
45.3	1431.0	1326.2
45.31	1386.0	1326.0
45.32	1340.0	1325.8
45.33	1357.0	1325.6
45.34	1359.0	1325.4
45.35	1341.0	1325.2
45.36	1346.0	1325.0
45.37	1366.0	1324.8
45.38	1336.0	1324.6
45.39	1325.0	1324.4
45.4	1369.0	1324.2
45.41	1394.0	1324.0
45.42	1361.0	1323.8
45.43	1354.0	1323.6
45.44	1339.0	1323.5
45.45	1347.0	1323.3
45.46	1349.0	1323.1
45.47	1344.0	1322.9
45.48	1328.0	1322.7
45.49	1343.0	1322.5
45.5	1362.0	1322.3
45.51	1347.0	1322.1
45.52	1348.0	1321.9
45.53	1347.0	1321.7
45.54	1361.0	1321.5
45.55	1403.0	1321.3
45.56	1380.0	1321.2
45.57	1369.0	1321.0
45.58	1372.0	1320.8
45.59	1316.0	1320.6
45.6	1315.0	1320.4
45.61	1351.0	1320.2
45.62	1397.0	1320.0
45.63	1377.0	1319.8
45.64	1354.0	1319.7
45.65	1385.0	1319.5
45.66	1387.0	1319.3
45.67	1339.0	1319.1
45.68	1351.0	1318.9
45.69	1383.0	1318.7
45.7	1363.0	1318.6
45.71	1348.0	1318.4
45.72	1364.0	1318.2
45.73	1363.0	1318.0
45.74	1346.0	1317.8
45.75	1341.0	1317.6
45.76	1373.0	1317.5
45.77	1362.0	1317.3
45.78	1331.0	1317.1
45.79	1327.0	1316.9
45.8	1327.0	1316.8
45.81	1316.0	1316.6
45.82	1333.0	1316.4
45.83	1342.0	1316.2
45.84	1335.0	1316.0
45.85	1299.0	1315.9
45.86	1288.0	1315.7
45.87	1316.0	1315.5
45.88	1359.0	1315.3
45.89	1347.0	1315.2
45.9	1320.0	1315.0
45.91	1350.0	1314.8
45.92	1360.0	1314.6
45.93	1373.0	1314.5
45.94	1388.0	1314.3
45.95	1365.0	1314.1
45.96	1346.0	1313.9
45.97	1331.0	1313.8
45.98	1286.0	1313.6
45.99	1310.0	1313.4
46.0	1348.0	1313.3
46.01	1360.0	1313.1
46.02	1362.0	1312.9
46.03	1354.0	1312.8
46.04	1329.0	1312.6
46.05	1303.0	1312.4
46.06	1299.0	1312.2
46.07	1311.0	1312.1
46.08	1316.0	1311.9
46.09	1367.0	1311.7
46.1	1382.0	1311.6
46.11	1364.0	1311.4
46.12	1386.0	1311.2
46.13	1377.0	1311.1
46.14	1348.0	1310.9
46.15	1345.0	1310.8
46.16	1377.0	1310.6
46.17	1328.0	1310.4
46.18	1312.0	1310.3
46.19	1328.0	1310.1
46.2	1331.0	1309.9
46.21	1360.0	1309.8
46.22	1368.0	1309.6
46.23	1344.0	1309.5
46.24	1325.0	1309.3
46.25	1351.0	1309.1
46.26	1362.0	1309.0
46.27	1348.0	1308.8
46.28	1344.0	1308.7
46.29	1348.0	1308.5
46.3	1359.0	1308.4
46.31	1355.0	1308.2
46.32	1336.0	1308.0
46.33	1333.0	1307.9
46.34	1301.0	1307.7
46.35	1315.0	1307.6
46.36	1333.0	1307.4
46.37	1326.0	1307.3
46.38	1358.0	1307.1
46.39	1382.0	1307.0
46.4	1353.0	1306.8
46.41	1336.0	1306.7
46.42	1343.0	1306.5
46.43	1328.0	1306.4
46.44	1321.0	1306.2
46.45	1362.0	1306.1
46.46	1359.0	1305.9
46.47	1330.0	1305.8
46.48	1317.0	1305.6
46.49	1339.0	1305.5
46.5	1363.0	1305.3
46.51	1372.0	1305.2
46.52	1393.0	1305.0
46.53	1369.0	1304.9
46.54	1313.0	1304.7
46.55	1269.0	1304.6
46.56	1296.0	1304.4
46.57	1318.0	1304.3
46.58	1352.0	1304.1
46.59	1340.0	1304.0
46.6	1305.0	1303.9
46.61	1303.0	1303.7
46.62	1316.0	1303.6
46.63	1331.0	1303.4
46.64	1347.0	1303.3
46.65	1323.0	1303.1
46.66	1320.0	1303.0
46.67	1327.0	1302.9
46.68	1319.0	1302.7
46.69	1312.0	1302.6
46.7	1364.0	1302.5
46.71	1400.0	1302.3
46.72	1389.0	1302.2
46.73	1358.0	1302.0
46.74	1384.0	1301.9
46.75	1385.0	1301.8
46.76	1341.0	1301.6
46.77	1363.0	1301.5
46.78	1374.0	1301.4
46.79	1329.0	1301.2
46.8	1317.0	1301.1
46.81	1336.0	1301.0
46.82	1335.0	1300.8
46.83	1320.0	1300.7
46.84	1320.0	1300.6
46.85	1317.0	1300.4
46.86	1322.0	1300.3
46.87	1325.0	1300.2
46.88	1320.0	1300.0
46.89	1341.0	1299.9
46.9	1359.0	1299.8
46.91	1340.0	1299.6
46.92	1336.0	1299.5
46.93	1340.0	1299.4
46.94	1326.0	1299.3
46.95	1335.0	1299.1
46.96	1338.0	1299.0
46.97	1318.0	1298.9
46.98	1326.0	1298.8
46.99	1347.0	1298.6
47.0	1339.0	1298.5
47.01	1348.0	1298.4
47.02	1348.0	1298.3
47.03	1351.0	1298.1
47.04	1349.0	1298.0
47.05	1347.0	1297.9
47.06	1336.0	1297.8
47.07	1334.0	1297.6
47.08	1345.0	1297.5
47.09	1336.0	1297.4
47.1	1338.0	1297.3
47.11	1358.0	1297.2
47.12	1335.0	1297.0
47.13	1305.0	1296.9
47.14	1317.0	1296.8
47.15	1327.0	1296.7
47.16	1340.0	1296.6
47.17	1350.0	1296.4
47.18	1368.0	1296.3
47.19	1363.0	1296.2
47.2	1311.0	1296.1
47.21	1288.0	1296.0
47.22	1319.0	1295.9
47.23	1321.0	1295.8
47.24	1297.0	1295.6
47.25	1298.0	1295.5
47.26	1314.0	1295.4
47.27	1334.0	1295.3
47.28	1304.0	1295.2
47.29	1284.0	1295.1
47.3	1306.0	1295.0
47.31	1339.0	1294.8
47.32	1367.0	1294.7
47.33	1362.0	1294.6
47.34	1350.0	1294.5
47.35	1369.0	1294.4
47.36	1357.0	1294.3
47.37	1340.0	1294.2
47.38	1343.0	1294.1
47.39	1347.0	1294.0
47.4	1317.0	1293.9
47.41	1296.0	1293.7
47.42	1324.0	1293.6
47.43	1359.0	1293.5
47.44	1361.0	1293.4
47.45	1320.0	1293.3
47.46	1325.0	1293.2
47.47	1344.0	1293.1
47.48	1334.0	1293.0
47.49	1296.0	1292.9
47.5	1298.0	1292.8
47.51	1326.0	1292.7
47.52	1340.0	1292.6
47.53	1324.0	1292.5
47.54	1311.0	1292.4
47.55	1335.0	1292.3
47.56	1328.0	1292.2
47.57	1303.0	1292.1
47.58	1357.0	1292.0
47.59	1369.0	1291.9
47.6	1340.0	1291.8
47.61	1287.0	1291.7
47.62	1300.0	1291.6
47.63	1321.0	1291.5
47.64	1333.0	1291.4
47.65	1341.0	1291.3
47.66	1300.0	1291.2
47.67	1300.0	1291.1
47.68	1364.0	1291.0
47.69	1381.0	1290.9
47.7	1334.0	1290.8
47.71	1293.0	1290.7
47.72	1314.0	1290.6
47.73	1334.0	1290.5
47.74	1343.0	1290.4
47.75	1353.0	1290.3
47.76	1332.0	1290.2
47.77	1304.0	1290.1
47.78	1313.0	1290.0
47.79	1322.0	1289.9
47.8	1333.0	1289.8
47.81	1355.0	1289.7
47.82	1357.0	1289.6
47.83	1368.0	1289.6
47.84	1360.0	1289.5
47.85	1331.0	1289.4
47.86	1335.0	1289.3
47.87	1326.0	1289.2
47.88	1329.0	1289.1
47.89	1338.0	1289.0
47.9	1305.0	1288.9
47.91	1333.0	1288.8
47.92	1346.0	1288.7
47.93	1353.0	1288.6
47.94	1343.0	1288.6
47.95	1311.0	1288.5
47.96	1313.0	1288.4
47.97	1319.0	1288.3
47.98	1286.0	1288.2
47.99	1268.0	1288.1
48.0	1300.0	1288.0
48.01	1345.0	1288.0
48.02	1370.0	1287.9
48.03	1355.0	1287.8
48.04	1363.0	1287.7
48.05	1383.0	1287.6
48.06	1368.0	1287.5
48.07	1366.0	1287.4
48.08	1351.0	1287.4
48.09	1323.0	1287.3
48.1	1312.0	1287.2
48.11	1319.0	1287.1
48.12	1333.0	1287.0
48.13	1324.0	1286.9
48.14	1307.0	1286.9
48.15	1304.0	1286.8
48.16	1323.0	1286.7
48.17	1312.0	1286.6
48.18	1311.0	1286.5
48.19	1306.0	1286.5
48.2	1300.0	1286.4
48.21	1302.0	1286.3
48.22	1314.0	1286.2
48.23	1335.0	1286.1
48.24	1321.0	1286.1
48.25	1313.0	1286.0
48.26	1321.0	1285.9
48.27	1323.0	1285.8
48.28	1337.0	1285.8
48.29	1358.0	1285.7
48.3	1362.0	1285.6
48.31	1346.0	1285.5
48.32	1320.0	1285.4
48.33	1316.0	1285.4
48.34	1341.0	1285.3
48.35	1361.0	1285.2
48.36	1329.0	1285.1
48.37	1329.0	1285.1
48.38	1339.0	1285.0
48.39	1313.0	1284.9
48.4	1321.0	1284.8
48.41	1342.0	1284.8
48.42	1329.0	1284.7
48.43	1338.0	1284.6
48.44	1394.0	1284.6
48.45	1373.0	1284.5
48.46	1328.0	1284.4
48.47	1311.0	1284.3
48.48	1301.0	1284.3
48.49	1289.0	1284.2
48.5	1284.0	1284.1
48.51	1300.0	1284.1
48.52	1327.0	1284.0
48.53	1323.0	1283.9
48.54	1316.0	1283.8
48.55	1333.0	1283.8
48.56	1330.0	1283.7
48.57	1345.0	1283.6
48.58	1385.0	1283.6
48.59	1389.0	1283.5
48.6	1368.0	1283.4
48.61	1356.0	1283.4
48.62	1337.0	1283.3
48.63	1343.0	1283.2
48.64	1368.0	1283.2
48.65	1372.0	1283.1
48.66	1359.0	1283.0
48.67	1348.0	1283.0
48.68	1359.0	1282.9
48.69	1351.0	1282.8
48.7	1332.0	1282.8
48.71	1331.0	1282.7
48.72	1326.0	1282.6
48.73	1332.0	1282.6
48.74	1369.0	1282.5
48.75	1377.0	1282.5
48.76	1339.0	1282.4
48.77	1327.0	1282.3
48.78	1337.0	1282.3
48.79	1349.0	1282.2
48.8	1348.0	1282.1
48.81	1369.0	1282.1
48.82	1377.0	1282.0
48.83	1370.0	1282.0
48.84	1360.0	1281.9
48.85	1341.0	1281.8
48.86	1382.0	1281.8
48.87	1389.0	1281.7
48.88	1372.0	1281.7
48.89	1359.0	1281.6
48.9	1366.0	1281.5
48.91	1375.0	1281.5
48.92	1361.0	1281.4
48.93	1355.0	1281.4
48.94	1353.0	1281.3
48.95	1333.0	1281.2
48.96	1323.0	1281.2
48.97	1345.0	1281.1
48.98	1369.0	1281.1
48.99	1381.0	1281.0
49.0	1395.0	1281.0
49.01	1391.0	1280.9
49.02	1366.0	1280.8
49.03	1367.0	1280.8
49.04	1392.0	1280.7
49.05	1387.0	1280.7
49.06	1383.0	1280.6
49.07	1375.0	1280.6
49.08	1389.0	1280.5
49.09	1389.0	1280.4
49.1	1367.0	1280.4
49.11	1373.0	1280.3
49.12	1373.0	1280.3
49.13	1380.0	1280.2
49.14	1357.0	1280.2
49.15	1348.0	1280.1
49.16	1363.0	1280.1
49.17	1339.0	1280.0
49.18	1340.0	1280.0
49.19	1369.0	1279.9
49.2	1349.0	1279.9
49.21	1343.0	1279.8
49.22	1377.0	1279.8
49.23	1380.0	1279.7
49.24	1338.0	1279.6
49.25	1344.0	1279.6
49.26	1386.0	1279.5
49.27	1387.0	1279.5
49.28	1380.0	1279.4
49.29	1373.0	1279.4
49.3	1403.0	1279.3
49.31	1415.0	1279.3
49.32	1366.0	1279.2
49.33	1337.0	1279.2
49.34	1360.0	1279.1
49.35	1389.0	1279.1
49.36	1409.0	1279.0
49.37	1402.0	1279.0
49.38	1378.0	1278.9
49.39	1371.0	1278.9
49.4	1371.0	1278.9
49.41	1373.0	1278.8
49.42	1383.0	1278.8
49.43	1395.0	1278.7
49.44	1409.0	1278.7
49.45	1401.0	1278.6
49.46	1380.0	1278.6
49.47	1388.0	1278.5
49.48	1426.0	1278.5
49.49	1437.0	1278.4
49.5	1420.0	1278.4
49.51	1404.0	1278.3
49.52	1413.0	1278.3
49.53	1392.0	1278.2
49.54	1380.0	1278.2
49.55	1429.0	1278.2
49.56	1460.0	1278.1
49.57	1456.0	1278.1
49.58	1446.0	1278.0
49.59	1432.0	1278.0
49.6	1426.0	1277.9
49.61	1438.0	1277.9
49.62	1474.0	1277.8
49.63	1493.0	1277.8
49.64	1469.0	1277.8
49.65	1466.0	1277.7
49.66	1471.0	1277.7
49.67	1481.0	1277.6
49.68	1490.0	1277.6
49.69	1448.0	1277.5
49.7	1432.0	1277.5
49.71	1473.0	1277.5
49.72	1499.0	1277.4
49.73	1501.0	1277.4
49.74	1503.0	1277.3
49.75	1502.0	1277.3
49.76	1481.0	1277.2
49.77	1461.0	1277.2
49.78	1470.0	1277.2
49.79	1502.0	1277.1
49.8	1530.0	1277.1
49.81	1525.0	1277.0
49.82	1553.0	1277.0
49.83	1560.0	1277.0
49.84	1536.0	1276.9
49.85	1563.0	1276.9
49.86	1602.0	1276.8
49.87	1623.0	1276.8
49.88	1607.0	1276.8
49.89	1574.0	1276.7
49.9	1584.0	1276.7
49.91	1615.0	1276.6
49.92	1628.0	1276.6
49.93	1642.0	1276.6
49.94	1686.0	1276.5
49.95	1710.0	1276.5
49.96	1682.0	1276.5
49.97	1701.0	1276.4
49.98	1724.0	1276.4
49.99	1741.0	1276.3
50.0	1761.0	1276.3
50.01	1797.0	1276.3
50.02	1844.0	1276.2
50.03	1850.0	1276.2
50.04	1861.0	1276.2
50.05	1897.0	1276.1
50.06	1955.0	1276.1
50.07	1998.0	1276.0
50.08	2022.0	1276.0
50.09	2090.0	1276.0
50.1	2145.0	1275.9
50.11	2164.0	1275.9
50.12	2238.0	1275.9
50.13	2283.0	1275.8
50.14	2318.0	1275.8
50.15	2378.0	1275.8
50.16	2447.0	1275.7
50.17	2512.0	1275.7
50.18	2552.0	1275.7
50.19	2575.0	1275.6
50.2	2627.0	1275.6
50.21	2688.0	1275.6
50.22	2747.0	1275.5
50.23	2841.0	1275.5
50.24	2940.0	1275.4
50.25	3053.0	1275.4
50.26	3153.0	1275.4
50.27	3224.0	1275.3
50.28	3314.0	1275.3
50.29	3436.0	1275.3
50.3	3576.0	1275.2
50.31	3687.0	1275.2
50.32	3735.0	1275.2
50.33	3800.0	1275.1
50.34	3957.0	1275.1
50.35	4058.0	1275.1
50.36	4172.0	1275.0
50.37	4301.0	1275.0
50.38	4393.0	1275.0
50.39	4500.0	1275.0
50.4	4530.0	1274.9
50.41	4562.0	1274.9
50.42	4623.0	1274.9
50.43	4682.0	1274.8
50.44	4717.0	1274.8
50.45	4717.0	1274.8
50.46	4751.0	1274.7
50.47	4778.0	1274.7
50.48	4740.0	1274.7
50.49	4695.0	1274.6
50.5	4668.0	1274.6
50.51	4602.0	1274.6
50.52	4539.0	1274.5
50.53	4520.0	1274.5
50.54	4453.0	1274.5
50.55	4333.0	1274.5
50.56	4252.0	1274.4
50.57	4218.0	1274.4
50.58	4130.0	1274.4
50.59	4034.0	1274.3
50.6	3923.0	1274.3
50.61	3782.0	1274.3
50.62	3665.0	1274.2
50.63	3536.0	1274.2
50.64	3470.0	1274.2
50.65	3403.0	1274.1
50.66	3230.0	1274.1
50.67	3076.0	1274.1
50.68	3003.0	1274.1
50.69	2929.0	1274.0
50.7	2862.0	1274.0
50.71	2793.0	1274.0
50.72	2690.0	1273.9
50.73	2585.0	1273.9
50.74	2528.0	1273.9
50.75	2509.0	1273.9
50.76	2443.0	1273.8
50.77	2352.0	1273.8
50.78	2257.0	1273.8
50.79	2206.0	1273.7
50.8	2223.0	1273.7
50.81	2205.0	1273.7
50.82	2145.0	1273.7
50.83	2077.0	1273.6
50.84	2014.0	1273.6
50.85	1982.0	1273.6
50.86	1985.0	1273.5
50.87	1975.0	1273.5
50.88	1933.0	1273.5
50.89	1897.0	1273.5
50.9	1893.0	1273.4
50.91	1872.0	1273.4
50.92	1839.0	1273.4
50.93	1839.0	1273.4
50.94	1829.0	1273.3
50.95	1782.0	1273.3
50.96	1733.0	1273.3
50.97	1723.0	1273.2
50.98	1714.0	1273.2
50.99	1673.0	1273.2
51.0	1609.0	1273.2
51.01	1592.0	1273.1
51.02	1634.0	1273.1
51.03	1651.0	1273.1
51.04	1641.0	1273.1
51.05	1641.0	1273.0
51.06	1635.0	1273.0
51.07	1596.0	1273.0
51.08	1556.0	1272.9
51.09	1540.0	1272.9
51.1	1567.0	1272.9
51.11	1584.0	1272.9
51.12	1549.0	1272.8
51.13	1547.0	1272.8
51.14	1554.0	1272.8
51.15	1523.0	1272.8
51.16	1518.0	1272.7
51.17	1528.0	1272.7
51.18	1517.0	1272.7
51.19	1489.0	1272.7
51.2	1473.0	1272.6
51.21	1469.0	1272.6
51.22	1462.0	1272.6
51.23	1447.0	1272.5
51.24	1442.0	1272.5
51.25	1468.0	1272.5
51.26	1470.0	1272.5
51.27	1452.0	1272.4
51.28	1447.0	1272.4
51.29	1438.0	1272.4
51.3	1426.0	1272.4
51.31	1417.0	1272.3
51.32	1424.0	1272.3
51.33	1436.0	1272.3
51.34	1426.0	1272.3
51.35	1402.0	1272.2
51.36	1423.0	1272.2
51.37	1454.0	1272.2
51.38	1442.0	1272.2
51.39	1416.0	1272.1
51.4	1421.0	1272.1
51.41	1455.0	1272.1
51.42	1445.0	1272.1
51.43	1416.0	1272.0
51.44	1406.0	1272.0
51.45	1403.0	1272.0
51.46	1412.0	1272.0
51.47	1421.0	1271.9
51.48	1407.0	1271.9
51.49	1394.0	1271.9
51.5	1396.0	1271.9
51.51	1393.0	1271.8
51.52	1383.0	1271.8
51.53	1363.0	1271.8
51.54	1359.0	1271.8
51.55	1367.0	1271.7
51.56	1390.0	1271.7
51.57	1405.0	1271.7
51.58	1405.0	1271.6
51.59	1418.0	1271.6
51.6	1416.0	1271.6
51.61	1409.0	1271.6
51.62	1439.0	1271.5
51.63	1447.0	1271.5
51.64	1395.0	1271.5
51.65	1365.0	1271.5
51.66	1380.0	1271.4
51.67	1405.0	1271.4
51.68	1421.0	1271.4
51.69	1381.0	1271.4
51.7	1345.0	1271.3
51.71	1341.0	1271.3
51.72	1339.0	1271.3
51.73	1356.0	1271.3
51.74	1370.0	1271.2
51.75	1382.0	1271.2
51.76	1402.0	1271.2
51.77	1397.0	1271.2
51.78	1388.0	1271.1
51.79	1379.0	1271.1
51.8	1359.0	1271.1
51.81	1342.0	1271.1
51.82	1336.0	1271.0
51.83	1342.0	1271.0
51.84	1364.0	1271.0
51.85	1371.0	1271.0
51.86	1344.0	1270.9
51.87	1338.0	1270.9
51.88	1382.0	1270.9
51.89	1418.0	1270.9
51.9	1405.0	1270.8
51.91	1415.0	1270.8
51.92	1415.0	1270.8
51.93	1354.0	1270.8
51.94	1312.0	1270.7
51.95	1320.0	1270.7
51.96	1342.0	1270.7
51.97	1350.0	1270.6
51.98	1360.0	1270.6
51.99	1369.0	1270.6
52.0	1344.0	1270.6
52.01	1329.0	1270.5
52.02	1345.0	1270.5
52.03	1336.0	1270.5
52.04	1357.0	1270.5
52.05	1385.0	1270.4
52.06	1378.0	1270.4
52.07	1377.0	1270.4
52.08	1380.0	1270.4
52.09	1366.0	1270.3
52.1	1358.0	1270.3
52.11	1377.0	1270.3
52.12	1385.0	1270.3
52.13	1371.0	1270.2
52.14	1354.0	1270.2
52.15	1332.0	1270.2
52.16	1330.0	1270.1
52.17	1345.0	1270.1
52.18	1366.0	1270.1
52.19	1368.0	1270.1
52.2	1348.0	1270.0
52.21	1337.0	1270.0
52.22	1348.0	1270.0
52.23	1336.0	1270.0
52.24	1311.0	1269.9
52.25	1323.0	1269.9
52.26	1338.0	1269.9
52.27	1343.0	1269.8
52.28	1354.0	1269.8
52.29	1333.0	1269.8
52.3	1304.0	1269.8
52.31	1306.0	1269.7
52.32	1320.0	1269.7
52.33	1337.0	1269.7
52.34	1344.0	1269.6
52.35	1317.0	1269.6
52.36	1298.0	1269.6
52.37	1313.0	1269.6
52.38	1340.0	1269.5
52.39	1350.0	1269.5
52.4	1329.0	1269.5
52.41	1319.0	1269.4
52.42	1339.0	1269.4
52.43	1333.0	1269.4
52.44	1319.0	1269.4
52.45	1355.0	1269.3
52.46	1393.0	1269.3
52.47	1371.0	1269.3
52.48	1334.0	1269.2
52.49	1307.0	1269.2
52.5	1291.0	1269.2
52.51	1269.0	1269.2
52.52	1256.0	1269.1
52.53	1296.0	1269.1
52.54	1317.0	1269.1
52.55	1304.0	1269.0
52.56	1296.0	1269.0
52.57	1311.0	1269.0
52.58	1347.0	1268.9
52.59	1363.0	1268.9
52.6	1331.0	1268.9
52.61	1302.0	1268.9
52.62	1314.0	1268.8
52.63	1339.0	1268.8
52.64	1352.0	1268.8
52.65	1355.0	1268.7
52.66	1354.0	1268.7
52.67	1353.0	1268.7
52.68	1331.0	1268.6
52.69	1322.0	1268.6
52.7	1352.0	1268.6
52.71	1324.0	1268.5
52.72	1317.0	1268.5
52.73	1346.0	1268.5
52.74	1334.0	1268.5
52.75	1316.0	1268.4
52.76	1307.0	1268.4
52.77	1295.0	1268.4
52.78	1315.0	1268.3
52.79	1336.0	1268.3
52.8	1328.0	1268.3
52.81	1335.0	1268.2
52.82	1354.0	1268.2
52.83	1379.0	1268.2
52.84	1394.0	1268.1
52.85	1357.0	1268.1
52.86	1351.0	1268.1
52.87	1383.0	1268.0
52.88	1388.0	1268.0
52.89	1380.0	1268.0
52.9	1390.0	1267.9
52.91	1409.0	1267.9
52.92	1371.0	1267.9
52.93	1372.0	1267.8
52.94	1388.0	1267.8
52.95	1378.0	1267.8
52.96	1393.0	1267.7
52.97	1385.0	1267.7
52.98	1349.0	1267.7
52.99	1359.0	1267.6
53.0	1414.0	1267.6
53.01	1454.0	1267.6
53.02	1430.0	1267.5
53.03	1417.0	1267.5
53.04	1438.0	1267.5
53.05	1472.0	1267.4
53.06	1464.0	1267.4
53.07	1435.0	1267.4
53.08	1450.0	1267.3
53.09	1465.0	1267.3
53.1	1453.0	1267.3
53.11	1472.0	1267.2
53.12	1503.0	1267.2
53.13	1508.0	1267.2
53.14	1531.0	1267.1
53.15	1532.0	1267.1
53.16	1542.0	1267.1
53.17	1601.0	1267.0
53.18	1610.0	1267.0
53.19	1593.0	1267.0
53.2	1582.0	1266.9
53.21	1590.0	1266.9
53.22	1639.0	1266.9
53.23	1684.0	1266.8
53.24	1691.0	1266.8
53.25	1664.0	1266.8
53.26	1666.0	1266.7
53.27	1701.0	1266.7
53.28	1765.0	1266.7
53.29	1825.0	1266.6
53.3	1869.0	1266.6
53.31	1885.0	1266.5
53.32	1939.0	1266.5
53.33	1978.0	1266.5
53.34	1967.0	1266.4
53.35	2019.0	1266.4
53.36	2107.0	1266.4
53.37	2169.0	1266.3
53.38	2213.0	1266.3
53.39	2248.0	1266.3
53.4	2274.0	1266.2
53.41	2324.0	1266.2
53.42	2360.0	1266.2
53.43	2324.0	1266.1
53.44	2326.0	1266.1
53.45	2352.0	1266.0
53.46	2324.0	1266.0
53.47	2298.0	1266.0
53.48	2282.0	1265.9
53.49	2265.0	1265.9
53.5	2281.0	1265.9
53.51	2285.0	1265.8
53.52	2239.0	1265.8
53.53	2211.0	1265.8
53.54	2208.0	1265.7
53.55	2152.0	1265.7
53.56	2109.0	1265.6
53.57	2064.0	1265.6
53.58	2032.0	1265.6
53.59	2010.0	1265.5
53.6	1981.0	1265.5
53.61	1940.0	1265.5
53.62	1867.0	1265.4
53.63	1846.0	1265.4
53.64	1814.0	1265.4
53.65	1764.0	1265.3
53.66	1749.0	1265.3
53.67	1744.0	1265.2
53.68	1692.0	1265.2
53.69	1654.0	1265.2
53.7	1629.0	1265.1
53.71	1582.0	1265.1
53.72	1590.0	1265.1
53.73	1603.0	1265.0
53.74	1554.0	1265.0
53.75	1516.0	1264.9
53.76	1488.0	1264.9
53.77	1488.0	1264.9
53.78	1512.0	1264.8
53.79	1490.0	1264.8
53.8	1472.0	1264.8
53.81	1454.0	1264.7
53.82	1452.0	1264.7
53.83	1458.0	1264.6
53.84	1436.0	1264.6
53.85	1415.0	1264.6
53.86	1429.0	1264.5
53.87	1433.0	1264.5
53.88	1413.0	1264.5
53.89	1412.0	1264.4
53.9	1397.0	1264.4
53.91	1363.0	1264.3
53.92	1372.0	1264.3
53.93	1385.0	1264.3
53.94	1381.0	1264.2
53.95	1392.0	1264.2
53.96	1384.0	1264.2
53.97	1380.0	1264.1
53.98	1382.0	1264.1
53.99	1374.0	1264.0
54.0	1393.0	1264.0
54.01	1373.0	1264.0
54.02	1332.0	1263.9
54.03	1309.0	1263.9
54.04	1317.0	1263.8
54.05	1362.0	1263.8
54.06	1363.0	1263.8
54.07	1329.0	1263.7
54.08	1317.0	1263.7
54.09	1309.0	1263.7
54.1	1305.0	1263.6
54.11	1313.0	1263.6
54.12	1306.0	1263.5
54.13	1284.0	1263.5
54.14	1299.0	1263.5
54.15	1353.0	1263.4
54.16	1370.0	1263.4
54.17	1344.0	1263.3
54.18	1323.0	1263.3
54.19	1292.0	1263.3
54.2	1295.0	1263.2
54.21	1335.0	1263.2
54.22	1336.0	1263.2
54.23	1315.0	1263.1
54.24	1300.0	1263.1
54.25	1298.0	1263.0
54.26	1297.0	1263.0
54.27	1307.0	1263.0
54.28	1317.0	1262.9
54.29	1304.0	1262.9
54.3	1335.0	1262.8
54.31	1333.0	1262.8
54.32	1299.0	1262.8
54.33	1327.0	1262.7
54.34	1346.0	1262.7
54.35	1300.0	1262.6
54.36	1256.0	1262.6
54.37	1265.0	1262.6
54.38	1310.0	1262.5
54.39	1320.0	1262.5
54.4	1300.0	1262.4
54.41	1282.0	1262.4
54.42	1272.0	1262.4
54.43	1269.0	1262.3
54.44	1305.0	1262.3
54.45	1338.0	1262.3
54.46	1357.0	1262.2
54.47	1371.0	1262.2
54.48	1335.0	1262.1
54.49	1296.0	1262.1
54.5	1297.0	1262.1
54.51	1294.0	1262.0
54.52	1309.0	1262.0
54.53	1320.0	1261.9
54.54	1322.0	1261.9
54.55	1314.0	1261.9
54.56	1289.0	1261.8
54.57	1283.0	1261.8
54.58	1284.0	1261.7
54.59	1304.0	1261.7
54.6	1325.0	1261.7
54.61	1326.0	1261.6
54.62	1311.0	1261.6
54.63	1292.0	1261.5
54.64	1310.0	1261.5
54.65	1304.0	1261.5
54.66	1316.0	1261.4
54.67	1347.0	1261.4
54.68	1354.0	1261.3
54.69	1313.0	1261.3
54.7	1259.0	1261.3
54.71	1286.0	1261.2
54.72	1335.0	1261.2
54.73	1335.0	1261.2
54.74	1327.0	1261.1
54.75	1298.0	1261.1
54.76	1295.0	1261.0
54.77	1318.0	1261.0
54.78	1310.0	1261.0
54.79	1296.0	1260.9
54.8	1317.0	1260.9
54.81	1324.0	1260.8
54.82	1330.0	1260.8
54.83	1318.0	1260.8
54.84	1302.0	1260.7
54.85	1303.0	1260.7
54.86	1327.0	1260.6
54.87	1343.0	1260.6
54.88	1345.0	1260.6
54.89	1342.0	1260.5
54.9	1318.0	1260.5
54.91	1294.0	1260.4
54.92	1284.0	1260.4
54.93	1279.0	1260.4
54.94	1288.0	1260.3
54.95	1315.0	1260.3
54.96	1341.0	1260.2
54.97	1353.0	1260.2
54.98	1321.0	1260.2
54.99	1298.0	1260.1
55.0	1286.0	1260.1
55.01	1288.0	1260.0
55.02	1302.0	1260.0
55.03	1325.0	1260.0
55.04	1323.0	1259.9
55.05	1298.0	1259.9
55.06	1336.0	1259.9
55.07	1332.0	1259.8
55.08	1319.0	1259.8
55.09	1296.0	1259.7
55.1	1333.0	1259.7
55.11	1374.0	1259.7
55.12	1343.0	1259.6
55.13	1326.0	1259.6
55.14	1342.0	1259.5
55.15	1355.0	1259.5
55.16	1345.0	1259.5
55.17	1353.0	1259.4
55.18	1321.0	1259.4
55.19	1292.0	1259.3
55.2	1313.0	1259.3
55.21	1326.0	1259.3
55.22	1322.0	1259.2
55.23	1327.0	1259.2
55.24	1337.0	1259.1
55.25	1334.0	1259.1
55.26	1298.0	1259.1
55.27	1295.0	1259.0
55.28	1322.0	1259.0
55.29	1364.0	1259.0
55.3	1395.0	1258.9
55.31	1384.0	1258.9
55.32	1358.0	1258.8
55.33	1358.0	1258.8
55.34	1396.0	1258.8
55.35	1357.0	1258.7
55.36	1347.0	1258.7
55.37	1384.0	1258.6
55.38	1371.0	1258.6
55.39	1351.0	1258.6
55.4	1347.0	1258.5
55.41	1335.0	1258.5
55.42	1357.0	1258.5
55.43	1379.0	1258.4
55.44	1355.0	1258.4
55.45	1345.0	1258.3
55.46	1391.0	1258.3
55.47	1408.0	1258.3
55.48	1399.0	1258.2
55.49	1367.0	1258.2
55.5	1405.0	1258.1
55.51	1406.0	1258.1
55.52	1398.0	1258.1
55.53	1418.0	1258.0
55.54	1451.0	1258.0
55.55	1458.0	1258.0
55.56	1434.0	1257.9
55.57	1436.0	1257.9
55.58	1467.0	1257.8
55.59	1467.0	1257.8
55.6	1466.0	1257.8
55.61	1514.0	1257.7
55.62	1518.0	1257.7
55.63	1530.0	1257.7
55.64	1532.0	1257.6
55.65	1545.0	1257.6
55.66	1584.0	1257.5
55.67	1583.0	1257.5
55.68	1587.0	1257.5
55.69	1623.0	1257.4
55.7	1656.0	1257.4
55.71	1683.0	1257.3
55.72	1685.0	1257.3
55.73	1704.0	1257.3
55.74	1742.0	1257.2
55.75	1746.0	1257.2
55.76	1756.0	1257.2
55.77	1780.0	1257.1
55.78	1781.0	1257.1
55.79	1789.0	1257.0
55.8	1818.0	1257.0
55.81	1877.0	1257.0
55.82	1943.0	1256.9
55.83	1972.0	1256.9
55.84	1959.0	1256.9
55.85	1962.0	1256.8
55.86	1981.0	1256.8
55.87	1978.0	1256.8
55.88	1966.0	1256.7
55.89	2004.0	1256.7
55.9	2033.0	1256.6
55.91	2026.0	1256.6
55.92	2039.0	1256.6
55.93	2033.0	1256.5
55.94	2025.0	1256.5
55.95	2022.0	1256.5
55.96	2021.0	1256.4
55.97	1987.0	1256.4
55.98	1994.0	1256.3
55.99	2012.0	1256.3
56.0	1991.0	1256.3
56.01	1966.0	1256.2
56.02	1952.0	1256.2
56.03	1944.0	1256.2
56.04	1930.0	1256.1
56.05	1892.0	1256.1
56.06	1865.0	1256.1
56.07	1867.0	1256.0
56.08	1847.0	1256.0
56.09	1807.0	1256.0
56.1	1773.0	1255.9
56.11	1753.0	1255.9
56.12	1745.0	1255.8
56.13	1744.0	1255.8
56.14	1735.0	1255.8
56.15	1717.0	1255.7
56.16	1700.0	1255.7
56.17	1658.0	1255.7
56.18	1638.0	1255.6
56.19	1616.0	1255.6
56.2	1589.0	1255.6
56.21	1563.0	1255.5
56.22	1548.0	1255.5
56.23	1569.0	1255.5
56.24	1554.0	1255.4
56.25	1516.0	1255.4
56.26	1535.0	1255.3
56.27	1523.0	1255.3
56.28	1485.0	1255.3
56.29	1485.0	1255.2
56.3	1473.0	1255.2
56.31	1463.0	1255.2
56.32	1438.0	1255.1
56.33	1411.0	1255.1
56.34	1411.0	1255.1
56.35	1402.0	1255.0
56.36	1427.0	1255.0
56.37	1445.0	1255.0
56.38	1429.0	1254.9
56.39	1422.0	1254.9
56.4	1422.0	1254.9
56.41	1413.0	1254.8
56.42	1395.0	1254.8
56.43	1402.0	1254.8
56.44	1412.0	1254.7
56.45	1406.0	1254.7
56.46	1396.0	1254.7
56.47	1380.0	1254.6
56.48	1382.0	1254.6
56.49	1380.0	1254.6
56.5	1348.0	1254.5
56.51	1307.0	1254.5
56.52	1343.0	1254.5
56.53	1359.0	1254.4
56.54	1324.0	1254.4
56.55	1330.0	1254.4
56.56	1351.0	1254.3
56.57	1331.0	1254.3
56.58	1333.0	1254.3
56.59	1335.0	1254.2
56.6	1352.0	1254.2
56.61	1335.0	1254.2
56.62	1331.0	1254.1
56.63	1329.0	1254.1
56.64	1362.0	1254.1
56.65	1360.0	1254.0
56.66	1353.0	1254.0
56.67	1342.0	1254.0
56.68	1335.0	1253.9
56.69	1340.0	1253.9
56.7	1355.0	1253.9
56.71	1364.0	1253.8
56.72	1354.0	1253.8
56.73	1360.0	1253.8
56.74	1368.0	1253.7
56.75	1320.0	1253.7
56.76	1298.0	1253.7
56.77	1289.0	1253.7
56.78	1286.0	1253.6
56.79	1331.0	1253.6
56.8	1345.0	1253.6
56.81	1321.0	1253.5
56.82	1311.0	1253.5
56.83	1271.0	1253.5
56.84	1283.0	1253.4
56.85	1301.0	1253.4
56.86	1317.0	1253.4
56.87	1313.0	1253.3
56.88	1306.0	1253.3
56.89	1313.0	1253.3
56.9	1326.0	1253.3
56.91	1304.0	1253.2
56.92	1301.0	1253.2
56.93	1312.0	1253.2
56.94	1338.0	1253.1
56.95	1360.0	1253.1
56.96	1387.0	1253.1
56.97	1374.0	1253.0
56.98	1338.0	1253.0
56.99	1308.0	1253.0
57.0	1308.0	1253.0
57.01	1286.0	1252.9
57.02	1278.0	1252.9
57.03	1309.0	1252.9
57.04	1298.0	1252.8
57.05	1261.0	1252.8
57.06	1265.0	1252.8
57.07	1321.0	1252.8
57.08	1317.0	1252.7
57.09	1304.0	1252.7
57.1	1325.0	1252.7
57.11	1323.0	1252.6
57.12	1313.0	1252.6
57.13	1322.0	1252.6
57.14	1339.0	1252.6
57.15	1337.0	1252.5
57.16	1289.0	1252.5
57.17	1262.0	1252.5
57.18	1250.0	1252.4
57.19	1293.0	1252.4
57.2	1316.0	1252.4
57.21	1333.0	1252.4
57.22	1304.0	1252.3
57.23	1301.0	1252.3
57.24	1279.0	1252.3
57.25	1294.0	1252.2
57.26	1283.0	1252.2
57.27	1304.0	1252.2
57.28	1296.0	1252.2
57.29	1276.0	1252.1
57.3	1282.0	1252.1
57.31	1285.0	1252.1
57.32	1281.0	1252.1
57.33	1248.0	1252.0
57.34	1260.0	1252.0
57.35	1295.0	1252.0
57.36	1307.0	1252.0
57.37	1351.0	1251.9
57.38	1341.0	1251.9
57.39	1288.0	1251.9
57.4	1281.0	1251.9
57.41	1286.0	1251.8
57.42	1300.0	1251.8
57.43	1321.0	1251.8
57.44	1300.0	1251.8
57.45	1278.0	1251.7
57.46	1278.0	1251.7
57.47	1247.0	1251.7
57.48	1235.0	1251.7
57.49	1227.0	1251.6
57.5	1237.0	1251.6
57.51	1288.0	1251.6
57.52	1310.0	1251.6
57.53	1297.0	1251.5
57.54	1309.0	1251.5
57.55	1309.0	1251.5
57.56	1331.0	1251.5
57.57	1318.0	1251.4
57.58	1266.0	1251.4
57.59	1314.0	1251.4
57.6	1340.0	1251.4
57.61	1314.0	1251.3
57.62	1309.0	1251.3
57.63	1298.0	1251.3
57.64	1289.0	1251.3
57.65	1314.0	1251.2
57.66	1290.0	1251.2
57.67	1286.0	1251.2
57.68	1283.0	1251.2
57.69	1287.0	1251.2
57.7	1324.0	1251.1
57.71	1325.0	1251.1
57.72	1299.0	1251.1
57.73	1293.0	1251.1
57.74	1315.0	1251.0
57.75	1286.0	1251.0
57.76	1256.0	1251.0
57.77	1247.0	1251.0
57.78	1277.0	1251.0
57.79	1322.0	1250.9
57.8	1332.0	1250.9
57.81	1315.0	1250.9
57.82	1258.0	1250.9
57.83	1256.0	1250.9
57.84	1256.0	1250.8
57.85	1275.0	1250.8
57.86	1291.0	1250.8
57.87	1301.0	1250.8
57.88	1287.0	1250.8
57.89	1267.0	1250.7
57.9	1280.0	1250.7
57.91	1323.0	1250.7
57.92	1325.0	1250.7
57.93	1306.0	1250.7
57.94	1296.0	1250.6
57.95	1281.0	1250.6
57.96	1272.0	1250.6
57.97	1261.0	1250.6
57.98	1269.0	1250.6
57.99	1264.0	1250.5
58.0	1272.0	1250.5
58.01	1254.0	1250.5
58.02	1264.0	1250.5
58.03	1285.0	1250.5
58.04	1264.0	1250.4
58.05	1257.0	1250.4
58.06	1301.0	1250.4
58.07	1292.0	1250.4
58.08	1308.0	1250.4
58.09	1341.0	1250.4
58.1	1327.0	1250.3
58.11	1297.0	1250.3
58.12	1313.0	1250.3
58.13	1309.0	1250.3
58.14	1278.0	1250.3
58.15	1254.0	1250.3
58.16	1273.0	1250.2
58.17	1298.0	1250.2
58.18	1285.0	1250.2
58.19	1278.0	1250.2
58.2	1275.0	1250.2
58.21	1321.0	1250.2
58.22	1300.0	1250.1
58.23	1308.0	1250.1
58.24	1272.0	1250.1
58.25	1265.0	1250.1
58.26	1296.0	1250.1
58.27	1305.0	1250.1
58.28	1284.0	1250.0
58.29	1278.0	1250.0
58.3	1287.0	1250.0
58.31	1280.0	1250.0
58.32	1253.0	1250.0
58.33	1225.0	1250.0
58.34	1241.0	1250.0
58.35	1293.0	1249.9
58.36	1301.0	1249.9
58.37	1242.0	1249.9
58.38	1253.0	1249.9
58.39	1287.0	1249.9
58.4	1294.0	1249.9
58.41	1276.0	1249.9
58.42	1262.0	1249.9
58.43	1271.0	1249.8
58.44	1273.0	1249.8
58.45	1273.0	1249.8
58.46	1278.0	1249.8
58.47	1275.0	1249.8
58.48	1262.0	1249.8
58.49	1259.0	1249.8
58.5	1292.0	1249.8
58.51	1295.0	1249.7
58.52	1305.0	1249.7
58.53	1313.0	1249.7
58.54	1333.0	1249.7
58.55	1292.0	1249.7
58.56	1247.0	1249.7
58.57	1242.0	1249.7
58.58	1287.0	1249.7
58.59	1304.0	1249.7
58.6	1267.0	1249.6
58.61	1269.0	1249.6
58.62	1295.0	1249.6
58.63	1286.0	1249.6
58.64	1264.0	1249.6
58.65	1270.0	1249.6
58.66	1272.0	1249.6
58.67	1264.0	1249.6
58.68	1259.0	1249.6
58.69	1246.0	1249.6
58.7	1251.0	1249.5
58.71	1307.0	1249.5
58.72	1297.0	1249.5
58.73	1264.0	1249.5
58.74	1258.0	1249.5
58.75	1244.0	1249.5
58.76	1235.0	1249.5
58.77	1272.0	1249.5
58.78	1298.0	1249.5
58.79	1279.0	1249.5
58.8	1280.0	1249.5
58.81	1286.0	1249.5
58.82	1287.0	1249.4
58.83	1304.0	1249.4
58.84	1250.0	1249.4
58.85	1267.0	1249.4
58.86	1304.0	1249.4
58.87	1269.0	1249.4
58.88	1279.0	1249.4
58.89	1287.0	1249.4
58.9	1262.0	1249.4
58.91	1279.0	1249.4
58.92	1306.0	1249.4
58.93	1326.0	1249.4
58.94	1309.0	1249.4
58.95	1295.0	1249.4
58.96	1276.0	1249.3
58.97	1271.0	1249.3
58.98	1273.0	1249.3
58.99	1273.0	1249.3
59.0	1279.0	1249.3
59.01	1286.0	1249.3
59.02	1272.0	1249.3
59.03	1254.0	1249.3
59.04	1291.0	1249.3
59.05	1312.0	1249.3
59.06	1262.0	1249.3
59.07	1301.0	1249.3
59.08	1283.0	1249.3
59.09	1266.0	1249.3
59.1	1244.0	1249.3
59.11	1230.0	1249.3
59.12	1248.0	1249.3
59.13	1292.0	1249.3
59.14	1297.0	1249.3
59.15	1256.0	1249.3
59.16	1245.0	1249.3
59.17	1231.0	1249.2
59.18	1249.0	1249.2
59.19	1245.0	1249.2
59.2	1274.0	1249.2
59.21	1288.0	1249.2
59.22	1279.0	1249.2
59.23	1270.0	1249.2
59.24	1313.0	1249.2
59.25	1311.0	1249.2
59.26	1291.0	1249.2
59.27	1278.0	1249.2
59.28	1315.0	1249.2
59.29	1333.0	1249.2
59.3	1306.0	1249.2
59.31	1279.0	1249.2
59.32	1304.0	1249.2
59.33	1272.0	1249.2
59.34	1285.0	1249.2
59.35	1291.0	1249.2
59.36	1252.0	1249.2
59.37	1277.0	1249.2
59.38	1290.0	1249.2
59.39	1314.0	1249.2
59.4	1266.0	1249.2
59.41	1271.0	1249.2
59.42	1283.0	1249.2
59.43	1264.0	1249.2
59.44	1258.0	1249.2
59.45	1273.0	1249.2
59.46	1354.0	1249.2
59.47	1332.0	1249.2
59.48	1316.0	1249.2
59.49	1265.0	1249.2
59.5	1276.0	1249.2
59.51	1290.0	1249.2
59.52	1324.0	1249.2
59.53	1345.0	1249.2
59.54	1290.0	1249.2
59.55	1307.0	1249.2
59.56	1355.0	1249.2
59.57	1331.0	1249.2
59.58	1277.0	1249.2
59.59	1239.0	1249.2
59.6	1263.0	1249.2
59.61	1275.0	1249.2
59.62	1312.0	1249.2
59.63	1330.0	1249.2
59.64	1315.0	1249.2
59.65	1293.0	1249.2
59.66	1289.0	1249.2
59.67	1297.0	1249.2
59.68	1344.0	1249.2
59.69	1322.0	1249.2
59.7	1328.0	1249.2
59.71	1316.0	1249.2
59.72	1317.0	1249.2
59.73	1332.0	1249.2
59.74	1321.0	1249.2
59.75	1267.0	1249.2
59.76	1293.0	1249.2
59.77	1314.0	1249.2
59.78	1316.0	1249.2
59.79	1342.0	1249.2
59.8	1301.0	1249.2
59.81	1292.0	1249.2
59.82	1328.0	1249.2
59.83	1359.0	1249.3
59.84	1382.0	1249.3
59.85	1360.0	1249.3
59.86	1367.0	1249.3
59.87	1399.0	1249.3
59.88	1362.0	1249.3
59.89	1368.0	1249.3
59.9	1413.0	1249.3
59.91	1375.0	1249.3
59.92	1334.0	1249.3
59.93	1363.0	1249.3
59.94	1370.0	1249.3
59.95	1394.0	1249.3
59.96	1415.0	1249.3
59.97	1411.0	1249.3
59.98	1417.0	1249.3
59.99	1444.0	1249.3
60.0	1414.0	1249.3
60.01	1406.0	1249.3
60.02	1420.0	1249.3
60.03	1413.0	1249.3
60.04	1440.0	1249.3
60.05	1467.0	1249.3
60.06	1427.0	1249.3
60.07	1429.0	1249.4
60.08	1456.0	1249.4
60.09	1472.0	1249.4
60.1	1495.0	1249.4
60.11	1534.0	1249.4
60.12	1489.0	1249.4
60.13	1494.0	1249.4
60.14	1510.0	1249.4
60.15	1512.0	1249.4
60.16	1509.0	1249.4
60.17	1508.0	1249.4
60.18	1543.0	1249.4
60.19	1597.0	1249.4
60.2	1582.0	1249.4
60.21	1569.0	1249.4
60.22	1603.0	1249.4
60.23	1671.0	1249.5
60.24	1698.0	1249.5
60.25	1634.0	1249.5
60.26	1630.0	1249.5
60.27	1675.0	1249.5
60.28	1690.0	1249.5
60.29	1675.0	1249.5
60.3	1636.0	1249.5
60.31	1616.0	1249.5
60.32	1640.0	1249.5
60.33	1675.0	1249.5
60.34	1706.0	1249.5
60.35	1728.0	1249.5
60.36	1665.0	1249.5
60.37	1661.0	1249.6
60.38	1680.0	1249.6
60.39	1649.0	1249.6
60.4	1631.0	1249.6
60.41	1586.0	1249.6
60.42	1578.0	1249.6
60.43	1571.0	1249.6
60.44	1605.0	1249.6
60.45	1612.0	1249.6
60.46	1594.0	1249.6
60.47	1576.0	1249.6
60.48	1548.0	1249.6
60.49	1548.0	1249.7
60.5	1580.0	1249.7
60.51	1574.0	1249.7
60.52	1565.0	1249.7
60.53	1493.0	1249.7
60.54	1500.0	1249.7
60.55	1518.0	1249.7
60.56	1495.0	1249.7
60.57	1485.0	1249.7
60.58	1486.0	1249.7
60.59	1507.0	1249.7
60.6	1528.0	1249.8
60.61	1487.0	1249.8
60.62	1512.0	1249.8
60.63	1481.0	1249.8
60.64	1452.0	1249.8
60.65	1429.0	1249.8
60.66	1437.0	1249.8
60.67	1419.0	1249.8
60.68	1441.0	1249.8
60.69	1479.0	1249.8
60.7	1480.0	1249.8
60.71	1485.0	1249.9
60.72	1439.0	1249.9
60.73	1457.0	1249.9
60.74	1434.0	1249.9
60.75	1403.0	1249.9
60.76	1362.0	1249.9
60.77	1394.0	1249.9
60.78	1403.0	1249.9
60.79	1431.0	1249.9
60.8	1419.0	1250.0
60.81	1404.0	1250.0
60.82	1426.0	1250.0
60.83	1444.0	1250.0
60.84	1403.0	1250.0
60.85	1366.0	1250.0
60.86	1391.0	1250.0
60.87	1417.0	1250.0
60.88	1422.0	1250.0
60.89	1420.0	1250.1
60.9	1391.0	1250.1
60.91	1384.0	1250.1
60.92	1367.0	1250.1
60.93	1383.0	1250.1
60.94	1374.0	1250.1
60.95	1374.0	1250.1
60.96	1386.0	1250.1
60.97	1376.0	1250.1
60.98	1433.0	1250.2
60.99	1403.0	1250.2
61.0	1367.0	1250.2
61.01	1411.0	1250.2
61.02	1426.0	1250.2
61.03	1413.0	1250.2
61.04	1360.0	1250.2
61.05	1352.0	1250.2
61.06	1363.0	1250.2
61.07	1354.0	1250.3
61.08	1347.0	1250.3
61.09	1355.0	1250.3
61.1	1366.0	1250.3
61.11	1369.0	1250.3
61.12	1368.0	1250.3
61.13	1322.0	1250.3
61.14	1356.0	1250.3
61.15	1349.0	1250.4
61.16	1351.0	1250.4
61.17	1353.0	1250.4
61.18	1350.0	1250.4
61.19	1347.0	1250.4
61.2	1347.0	1250.4
61.21	1319.0	1250.4
61.22	1357.0	1250.4
61.23	1368.0	1250.5
61.24	1389.0	1250.5
61.25	1390.0	1250.5
61.26	1369.0	1250.5
61.27	1334.0	1250.5
61.28	1342.0	1250.5
61.29	1370.0	1250.5
61.3	1367.0	1250.6
61.31	1360.0	1250.6
61.32	1368.0	1250.6
61.33	1326.0	1250.6
61.34	1341.0	1250.6
61.35	1335.0	1250.6
61.36	1309.0	1250.6
61.37	1325.0	1250.6
61.38	1331.0	1250.7
61.39	1342.0	1250.7
61.4	1375.0	1250.7
61.41	1369.0	1250.7
61.42	1353.0	1250.7
61.43	1333.0	1250.7
61.44	1359.0	1250.7
61.45	1387.0	1250.8
61.46	1379.0	1250.8
61.47	1374.0	1250.8
61.48	1330.0	1250.8
61.49	1346.0	1250.8
61.5	1350.0	1250.8
61.51	1375.0	1250.8
61.52	1353.0	1250.9
61.53	1355.0	1250.9
61.54	1366.0	1250.9
61.55	1386.0	1250.9
61.56	1368.0	1250.9
61.57	1321.0	1250.9
61.58	1346.0	1250.9
61.59	1348.0	1251.0
61.6	1333.0	1251.0
61.61	1358.0	1251.0
61.62	1376.0	1251.0
61.63	1359.0	1251.0
61.64	1332.0	1251.0
61.65	1319.0	1251.0
61.66	1340.0	1251.1
61.67	1326.0	1251.1
61.68	1337.0	1251.1
61.69	1374.0	1251.1
61.7	1340.0	1251.1
61.71	1353.0	1251.1
61.72	1363.0	1251.1
61.73	1374.0	1251.2
61.74	1366.0	1251.2
61.75	1383.0	1251.2
61.76	1413.0	1251.2
61.77	1408.0	1251.2
61.78	1391.0	1251.2
61.79	1373.0	1251.3
61.8	1400.0	1251.3
61.81	1379.0	1251.3
61.82	1332.0	1251.3
61.83	1364.0	1251.3
61.84	1355.0	1251.3
61.85	1330.0	1251.3
61.86	1368.0	1251.4
61.87	1367.0	1251.4
61.88	1393.0	1251.4
61.89	1368.0	1251.4
61.9	1389.0	1251.4
61.91	1409.0	1251.4
61.92	1375.0	1251.4
61.93	1367.0	1251.5
61.94	1331.0	1251.5
61.95	1340.0	1251.5
61.96	1368.0	1251.5
61.97	1397.0	1251.5
61.98	1381.0	1251.5
61.99	1402.0	1251.6
62.0	1426.0	1251.6
62.01	1393.0	1251.6
62.02	1419.0	1251.6
62.03	1443.0	1251.6
62.04	1430.0	1251.6
62.05	1429.0	1251.7
62.06	1391.0	1251.7
62.07	1413.0	1251.7
62.08	1459.0	1251.7
62.09	1403.0	1251.7
62.1	1455.0	1251.7
62.11	1472.0	1251.7
62.12	1442.0	1251.8
62.13	1465.0	1251.8
62.14	1500.0	1251.8
62.15	1499.0	1251.8
62.16	1456.0	1251.8
62.17	1461.0	1251.8
62.18	1488.0	1251.9
62.19	1489.0	1251.9
62.2	1478.0	1251.9
62.21	1470.0	1251.9
62.22	1477.0	1251.9
62.23	1531.0	1251.9
62.24	1579.0	1252.0
62.25	1604.0	1252.0
62.26	1614.0	1252.0
62.27	1585.0	1252.0
62.28	1583.0	1252.0
62.29	1618.0	1252.0
62.3	1609.0	1252.0
62.31	1628.0	1252.1
62.32	1620.0	1252.1
62.33	1649.0	1252.1
62.34	1735.0	1252.1
62.35	1693.0	1252.1
62.36	1650.0	1252.1
62.37	1716.0	1252.2
62.38	1779.0	1252.2
62.39	1784.0	1252.2
62.4	1789.0	1252.2
62.41	1800.0	1252.2
62.42	1805.0	1252.2
62.43	1829.0	1252.3
62.44	1853.0	1252.3
62.45	1884.0	1252.3
62.46	1876.0	1252.3
62.47	1921.0	1252.3
62.48	1976.0	1252.3
62.49	1934.0	1252.4
62.5	1955.0	1252.4
62.51	2035.0	1252.4
62.52	2040.0	1252.4
62.53	2044.0	1252.4
62.54	1992.0	1252.4
62.55	1996.0	1252.5
62.56	2067.0	1252.5
62.57	2079.0	1252.5
62.58	2069.0	1252.5
62.59	2087.0	1252.5
62.6	2101.0	1252.5
62.61	2048.0	1252.5
62.62	2028.0	1252.6
62.63	2068.0	1252.6
62.64	2092.0	1252.6
62.65	2080.0	1252.6
62.66	2011.0	1252.6
62.67	2007.0	1252.6
62.68	2051.0	1252.7
62.69	2018.0	1252.7
62.7	2003.0	1252.7
62.71	1956.0	1252.7
62.72	1975.0	1252.7
62.73	1938.0	1252.7
62.74	1894.0	1252.8
62.75	1863.0	1252.8
62.76	1830.0	1252.8
62.77	1887.0	1252.8
62.78	1882.0	1252.8
62.79	1829.0	1252.8
62.8	1806.0	1252.9
62.81	1804.0	1252.9
62.82	1790.0	1252.9
62.83	1763.0	1252.9
62.84	1749.0	1252.9
62.85	1748.0	1252.9
62.86	1700.0	1253.0
62.87	1659.0	1253.0
62.88	1664.0	1253.0
62.89	1645.0	1253.0
62.9	1604.0	1253.0
62.91	1634.0	1253.0
62.92	1610.0	1253.1
62.93	1606.0	1253.1
62.94	1625.0	1253.1
62.95	1591.0	1253.1
62.96	1565.0	1253.1
62.97	1574.0	1253.1
62.98	1547.0	1253.1
62.99	1504.0	1253.2
63.0	1513.0	1253.2
63.01	1530.0	1253.2
63.02	1490.0	1253.2
63.03	1452.0	1253.2
63.04	1419.0	1253.2
63.05	1447.0	1253.3
63.06	1476.0	1253.3
63.07	1462.0	1253.3
63.08	1456.0	1253.3
63.09	1497.0	1253.3
63.1	1495.0	1253.3
63.11	1450.0	1253.4
63.12	1452.0	1253.4
63.13	1417.0	1253.4
63.14	1433.0	1253.4
63.15	1417.0	1253.4
63.16	1419.0	1253.4
63.17	1393.0	1253.4
63.18	1443.0	1253.5
63.19	1469.0	1253.5
63.2	1377.0	1253.5
63.21	1414.0	1253.5
63.22	1424.0	1253.5
63.23	1438.0	1253.5
63.24	1455.0	1253.6
63.25	1429.0	1253.6
63.26	1401.0	1253.6
63.27	1447.0	1253.6
63.28	1406.0	1253.6
63.29	1423.0	1253.6
63.3	1403.0	1253.7
63.31	1408.0	1253.7
63.32	1423.0	1253.7
63.33	1454.0	1253.7
63.34	1398.0	1253.7
63.35	1406.0	1253.7
63.36	1393.0	1253.7
63.37	1347.0	1253.8
63.38	1416.0	1253.8
63.39	1430.0	1253.8
63.4	1446.0	1253.8
63.41	1429.0	1253.8
63.42	1443.0	1253.8
63.43	1440.0	1253.9
63.44	1424.0	1253.9
63.45	1414.0	1253.9
63.46	1456.0	1253.9
63.47	1444.0	1253.9
63.48	1435.0	1253.9
63.49	1404.0	1253.9
63.5	1461.0	1254.0
63.51	1458.0	1254.0
63.52	1463.0	1254.0
63.53	1460.0	1254.0
63.54	1448.0	1254.0
63.55	1469.0	1254.0
63.56	1534.0	1254.0
63.57	1506.0	1254.1
63.58	1437.0	1254.1
63.59	1457.0	1254.1
63.6	1477.0	1254.1
63.61	1485.0	1254.1
63.62	1494.0	1254.1
63.63	1539.0	1254.2
63.64	1497.0	1254.2
63.65	1519.0	1254.2
63.66	1561.0	1254.2
63.67	1541.0	1254.2
63.68	1578.0	1254.2
63.69	1614.0	1254.2
63.7	1589.0	1254.3
63.71	1575.0	1254.3
63.72	1596.0	1254.3
63.73	1635.0	1254.3
63.74	1631.0	1254.3
63.75	1651.0	1254.3
63.76	1646.0	1254.3
63.77	1658.0	1254.4
63.78	1669.0	1254.4
63.79	1674.0	1254.4
63.8	1668.0	1254.4
63.81	1683.0	1254.4
63.82	1737.0	1254.4
63.83	1762.0	1254.4
63.84	1726.0	1254.5
63.85	1772.0	1254.5
63.86	1772.0	1254.5
63.87	1777.0	1254.5
63.88	1837.0	1254.5
63.89	1845.0	1254.5
63.9	1858.0	1254.5
63.91	1893.0	1254.5
63.92	1960.0	1254.6
63.93	2002.0	1254.6
63.94	1988.0	1254.6
63.95	2004.0	1254.6
63.96	2026.0	1254.6
63.97	2008.0	1254.6
63.98	2025.0	1254.6
63.99	2115.0	1254.7
64.0	2123.0	1254.7
64.01	2150.0	1254.7
64.02	2096.0	1254.7
64.03	2097.0	1254.7
64.04	2127.0	1254.7
64.05	2181.0	1254.7
64.06	2217.0	1254.7
64.07	2231.0	1254.8
64.08	2236.0	1254.8
64.09	2216.0	1254.8
64.1	2229.0	1254.8
64.11	2242.0	1254.8
64.12	2261.0	1254.8
64.13	2244.0	1254.8
64.14	2262.0	1254.9
64.15	2307.0	1254.9
64.16	2196.0	1254.9
64.17	2194.0	1254.9
64.18	2186.0	1254.9
64.19	2245.0	1254.9
64.2	2151.0	1254.9
64.21	2190.0	1254.9
64.22	2197.0	1254.9
64.23	2169.0	1255.0
64.24	2148.0	1255.0
64.25	2126.0	1255.0
64.26	2131.0	1255.0
64.27	2027.0	1255.0
64.28	1973.0	1255.0
64.29	2041.0	1255.0
64.3	2016.0	1255.0
64.31	1937.0	1255.1
64.32	1921.0	1255.1
64.33	1959.0	1255.1
64.34	1925.0	1255.1
64.35	1933.0	1255.1
64.36	1884.0	1255.1
64.37	1841.0	1255.1
64.38	1839.0	1255.1
64.39	1787.0	1255.1
64.4	1786.0	1255.2
64.41	1843.0	1255.2
64.42	1721.0	1255.2
64.43	1710.0	1255.2
64.44	1709.0	1255.2
64.45	1698.0	1255.2
64.46	1716.0	1255.2
64.47	1702.0	1255.2
64.48	1643.0	1255.2
64.49	1657.0	1255.3
64.5	1660.0	1255.3
64.51	1646.0	1255.3
64.52	1596.0	1255.3
64.53	1583.0	1255.3
64.54	1581.0	1255.3
64.55	1569.0	1255.3
64.56	1558.0	1255.3
64.57	1545.0	1255.3
64.58	1517.0	1255.4
64.59	1468.0	1255.4
64.6	1496.0	1255.4
64.61	1521.0	1255.4
64.62	1506.0	1255.4
64.63	1518.0	1255.4
64.64	1502.0	1255.4
64.65	1509.0	1255.4
64.66	1511.0	1255.4
64.67	1503.0	1255.4
64.68	1486.0	1255.5
64.69	1440.0	1255.5
64.7	1455.0	1255.5
64.71	1425.0	1255.5
64.72	1438.0	1255.5
64.73	1426.0	1255.5
64.74	1398.0	1255.5
64.75	1364.0	1255.5
64.76	1374.0	1255.5
64.77	1417.0	1255.5
64.78	1404.0	1255.5
64.79	1402.0	1255.6
64.8	1352.0	1255.6
64.81	1375.0	1255.6
64.82	1419.0	1255.6
64.83	1409.0	1255.6
64.84	1419.0	1255.6
64.85	1445.0	1255.6
64.86	1469.0	1255.6
64.87	1407.0	1255.6
64.88	1345.0	1255.6
64.89	1361.0	1255.6
64.9	1362.0	1255.6
64.91	1339.0	1255.7
64.92	1367.0	1255.7
64.93	1379.0	1255.7
64.94	1385.0	1255.7
64.95	1386.0	1255.7
64.96	1335.0	1255.7
64.97	1330.0	1255.7
64.98	1296.0	1255.7
64.99	1285.0	1255.7
65.0	1344.0	1255.7
65.01	1341.0	1255.7
65.02	1312.0	1255.7
65.03	1311.0	1255.7
65.04	1307.0	1255.7
65.05	1335.0	1255.8
65.06	1349.0	1255.8
65.07	1350.0	1255.8
65.08	1316.0	1255.8
65.09	1356.0	1255.8
65.1	1327.0	1255.8
65.11	1324.0	1255.8
65.12	1349.0	1255.8
65.13	1311.0	1255.8
65.14	1314.0	1255.8
65.15	1325.0	1255.8
65.16	1304.0	1255.8
65.17	1276.0	1255.8
65.18	1321.0	1255.8
65.19	1321.0	1255.8
65.2	1255.0	1255.8
65.21	1270.0	1255.9
65.22	1301.0	1255.9
65.23	1328.0	1255.9
65.24	1290.0	1255.9
65.25	1305.0	1255.9
65.26	1297.0	1255.9
65.27	1345.0	1255.9
65.28	1319.0	1255.9
65.29	1287.0	1255.9
65.3	1293.0	1255.9
65.31	1286.0	1255.9
65.32	1275.0	1255.9
65.33	1271.0	1255.9
65.34	1284.0	1255.9
65.35	1251.0	1255.9
65.36	1268.0	1255.9
65.37	1285.0	1255.9
65.38	1266.0	1255.9
65.39	1315.0	1255.9
65.4	1351.0	1255.9
65.41	1304.0	1255.9
65.42	1276.0	1255.9
65.43	1266.0	1256.0
65.44	1245.0	1256.0
65.45	1265.0	1256.0
65.46	1288.0	1256.0
65.47	1268.0	1256.0
65.48	1277.0	1256.0
65.49	1260.0	1256.0
65.5	1273.0	1256.0
65.51	1284.0	1256.0
65.52	1225.0	1256.0
65.53	1290.0	1256.0
65.54	1331.0	1256.0
65.55	1321.0	1256.0
65.56	1296.0	1256.0
65.57	1266.0	1256.0
65.58	1272.0	1256.0
65.59	1307.0	1256.0
65.6	1302.0	1256.0
65.61	1284.0	1256.0
65.62	1273.0	1256.0
65.63	1246.0	1256.0
65.64	1254.0	1256.0
65.65	1260.0	1256.0
65.66	1285.0	1256.0
65.67	1247.0	1256.0
65.68	1320.0	1256.0
65.69	1300.0	1256.0
65.7	1248.0	1256.0
65.71	1280.0	1256.0
65.72	1274.0	1256.0
65.73	1240.0	1256.0
65.74	1248.0	1256.0
65.75	1212.0	1256.0
65.76	1229.0	1256.0
65.77	1265.0	1256.0
65.78	1274.0	1256.0
65.79	1288.0	1256.0
65.8	1265.0	1256.0
65.81	1266.0	1256.0
65.82	1291.0	1256.0
65.83	1312.0	1256.0
65.84	1286.0	1256.0
65.85	1233.0	1256.0
65.86	1288.0	1256.0
65.87	1291.0	1256.0
65.88	1243.0	1256.0
65.89	1285.0	1256.0
65.9	1306.0	1256.0
65.91	1273.0	1256.0
65.92	1267.0	1256.0
65.93	1314.0	1256.0
65.94	1270.0	1256.0
65.95	1316.0	1256.0
65.96	1279.0	1256.0
65.97	1258.0	1256.0
65.98	1271.0	1256.0
65.99	1294.0	1256.0
66.0	1276.0	1256.0
66.01	1244.0	1256.0
66.02	1249.0	1256.0
66.03	1253.0	1256.0
66.04	1304.0	1256.0
66.05	1314.0	1256.0
66.06	1275.0	1256.0
66.07	1263.0	1256.0
66.08	1247.0	1256.0
66.09	1181.0	1256.0
66.1	1277.0	1256.0
66.11	1354.0	1256.0
66.12	1303.0	1256.0
66.13	1280.0	1256.0
66.14	1265.0	1256.0
66.15	1330.0	1256.0
66.16	1278.0	1256.0
66.17	1231.0	1255.9
66.18	1181.0	1255.9
66.19	1250.0	1255.9
66.2	1304.0	1255.9
66.21	1297.0	1255.9
66.22	1322.0	1255.9
66.23	1294.0	1255.9
66.24	1288.0	1255.9
66.25	1254.0	1255.9
66.26	1300.0	1255.9
66.27	1270.0	1255.9
66.28	1268.0	1255.9
66.29	1285.0	1255.9
66.3	1290.0	1255.9
66.31	1285.0	1255.9
66.32	1280.0	1255.9
66.33	1301.0	1255.9
66.34	1325.0	1255.9
66.35	1302.0	1255.9
66.36	1299.0	1255.9
66.37	1231.0	1255.8
66.38	1271.0	1255.8
66.39	1347.0	1255.8
66.4	1327.0	1255.8
66.41	1279.0	1255.8
66.42	1292.0	1255.8
66.43	1286.0	1255.8
66.44	1282.0	1255.8
66.45	1250.0	1255.8
66.46	1238.0	1255.8
66.47	1283.0	1255.8
66.48	1289.0	1255.8
66.49	1277.0	1255.8
66.5	1283.0	1255.8
66.51	1308.0	1255.7
66.52	1275.0	1255.7
66.53	1263.0	1255.7
66.54	1278.0	1255.7
66.55	1272.0	1255.7
66.56	1283.0	1255.7
66.57	1288.0	1255.7
66.58	1319.0	1255.7
66.59	1305.0	1255.7
66.6	1295.0	1255.7
66.61	1280.0	1255.7
66.62	1249.0	1255.7
66.63	1254.0	1255.7
66.64	1258.0	1255.6
66.65	1285.0	1255.6
66.66	1282.0	1255.6
66.67	1285.0	1255.6
66.68	1282.0	1255.6
66.69	1277.0	1255.6
66.7	1293.0	1255.6
66.71	1244.0	1255.6
66.72	1268.0	1255.6
66.73	1306.0	1255.6
66.74	1326.0	1255.6
66.75	1280.0	1255.5
66.76	1313.0	1255.5
66.77	1294.0	1255.5
66.78	1285.0	1255.5
66.79	1292.0	1255.5
66.8	1239.0	1255.5
66.81	1264.0	1255.5
66.82	1281.0	1255.5
66.83	1282.0	1255.5
66.84	1280.0	1255.4
66.85	1285.0	1255.4
66.86	1297.0	1255.4
66.87	1295.0	1255.4
66.88	1319.0	1255.4
66.89	1297.0	1255.4
66.9	1295.0	1255.4
66.91	1289.0	1255.4
66.92	1268.0	1255.4
66.93	1236.0	1255.3
66.94	1209.0	1255.3
66.95	1251.0	1255.3
66.96	1282.0	1255.3
66.97	1304.0	1255.3
66.98	1274.0	1255.3
66.99	1267.0	1255.3
67.0	1294.0	1255.3
67.01	1311.0	1255.3
67.02	1299.0	1255.2
67.03	1322.0	1255.2
67.04	1303.0	1255.2
67.05	1292.0	1255.2
67.06	1321.0	1255.2
67.07	1326.0	1255.2
67.08	1353.0	1255.2
67.09	1338.0	1255.2
67.1	1333.0	1255.1
67.11	1330.0	1255.1
67.12	1324.0	1255.1
67.13	1339.0	1255.1
67.14	1334.0	1255.1
67.15	1302.0	1255.1
67.16	1366.0	1255.1
67.17	1376.0	1255.1
67.18	1288.0	1255.0
67.19	1317.0	1255.0
67.2	1341.0	1255.0
67.21	1334.0	1255.0
67.22	1368.0	1255.0
67.23	1323.0	1255.0
67.24	1339.0	1255.0
67.25	1349.0	1254.9
67.26	1341.0	1254.9
67.27	1319.0	1254.9
67.28	1331.0	1254.9
67.29	1378.0	1254.9
67.3	1372.0	1254.9
67.31	1349.0	1254.9
67.32	1331.0	1254.8
67.33	1310.0	1254.8
67.34	1296.0	1254.8
67.35	1332.0	1254.8
67.36	1329.0	1254.8
67.37	1307.0	1254.8
67.38	1308.0	1254.8
67.39	1307.0	1254.7
67.4	1282.0	1254.7
67.41	1339.0	1254.7
67.42	1320.0	1254.7
67.43	1268.0	1254.7
67.44	1264.0	1254.7
67.45	1297.0	1254.6
67.46	1309.0	1254.6
67.47	1301.0	1254.6
67.48	1274.0	1254.6
67.49	1286.0	1254.6
67.5	1288.0	1254.6
67.51	1309.0	1254.6
67.52	1304.0	1254.5
67.53	1337.0	1254.5
67.54	1325.0	1254.5
67.55	1279.0	1254.5
67.56	1311.0	1254.5
67.57	1340.0	1254.5
67.58	1326.0	1254.4
67.59	1355.0	1254.4
67.6	1254.0	1254.4
67.61	1271.0	1254.4
67.62	1273.0	1254.4
67.63	1288.0	1254.4
67.64	1263.0	1254.3
67.65	1311.0	1254.3
67.66	1351.0	1254.3
67.67	1325.0	1254.3
67.68	1263.0	1254.3
67.69	1300.0	1254.3
67.7	1324.0	1254.2
67.71	1281.0	1254.2
67.72	1292.0	1254.2
67.73	1279.0	1254.2
67.74	1240.0	1254.2
67.75	1282.0	1254.2
67.76	1300.0	1254.1
67.77	1291.0	1254.1
67.78	1353.0	1254.1
67.79	1350.0	1254.1
67.8	1342.0	1254.1
67.81	1292.0	1254.1
67.82	1320.0	1254.0
67.83	1301.0	1254.0
67.84	1300.0	1254.0
67.85	1306.0	1254.0
67.86	1309.0	1254.0
67.87	1270.0	1253.9
67.88	1266.0	1253.9
67.89	1322.0	1253.9
67.9	1301.0	1253.9
67.91	1292.0	1253.9
67.92	1298.0	1253.9
67.93	1301.0	1253.8
67.94	1287.0	1253.8
67.95	1267.0	1253.8
67.96	1263.0	1253.8
67.97	1260.0	1253.8
67.98	1304.0	1253.7
67.99	1322.0	1253.7
68.0	1273.0	1253.7
68.01	1281.0	1253.7
68.02	1292.0	1253.7
68.03	1233.0	1253.7
68.04	1269.0	1253.6
68.05	1312.0	1253.6
68.06	1325.0	1253.6
68.07	1275.0	1253.6
68.08	1262.0	1253.6
68.09	1315.0	1253.5
68.1	1342.0	1253.5
68.11	1304.0	1253.5
68.12	1265.0	1253.5
68.13	1301.0	1253.5
68.14	1277.0	1253.4
68.15	1293.0	1253.4
68.16	1336.0	1253.4
68.17	1315.0	1253.4
68.18	1302.0	1253.4
68.19	1240.0	1253.4
68.2	1284.0	1253.3
68.21	1298.0	1253.3
68.22	1298.0	1253.3
68.23	1315.0	1253.3
68.24	1267.0	1253.3
68.25	1316.0	1253.2
68.26	1309.0	1253.2
68.27	1303.0	1253.2
68.28	1343.0	1253.2
68.29	1305.0	1253.2
68.3	1275.0	1253.1
68.31	1302.0	1253.1
68.32	1285.0	1253.1
68.33	1288.0	1253.1
68.34	1282.0	1253.1
68.35	1305.0	1253.0
68.36	1317.0	1253.0
68.37	1327.0	1253.0
68.38	1293.0	1253.0
68.39	1325.0	1253.0
68.4	1279.0	1252.9
68.41	1272.0	1252.9
68.42	1228.0	1252.9
68.43	1297.0	1252.9
68.44	1341.0	1252.9
68.45	1320.0	1252.8
68.46	1280.0	1252.8
68.47	1282.0	1252.8
68.48	1232.0	1252.8
68.49	1271.0	1252.7
68.5	1287.0	1252.7
68.51	1312.0	1252.7
68.52	1307.0	1252.7
68.53	1316.0	1252.7
68.54	1345.0	1252.6
68.55	1340.0	1252.6
68.56	1341.0	1252.6
68.57	1369.0	1252.6
68.58	1382.0	1252.6
68.59	1374.0	1252.5
68.6	1342.0	1252.5
68.61	1346.0	1252.5
68.62	1350.0	1252.5
68.63	1319.0	1252.5
68.64	1319.0	1252.4
68.65	1408.0	1252.4
68.66	1376.0	1252.4
68.67	1334.0	1252.4
68.68	1352.0	1252.4
68.69	1376.0	1252.3
68.7	1364.0	1252.3
68.71	1389.0	1252.3
68.72	1335.0	1252.3
68.73	1363.0	1252.2
68.74	1390.0	1252.2
68.75	1387.0	1252.2
68.76	1409.0	1252.2
68.77	1395.0	1252.2
68.78	1392.0	1252.1
68.79	1394.0	1252.1
68.8	1382.0	1252.1
68.81	1431.0	1252.1
68.82	1437.0	1252.1
68.83	1378.0	1252.0
68.84	1382.0	1252.0
68.85	1403.0	1252.0
68.86	1399.0	1252.0
68.87	1434.0	1251.9
68.88	1457.0	1251.9
68.89	1421.0	1251.9
68.9	1397.0	1251.9
68.91	1430.0	1251.9
68.92	1422.0	1251.8
68.93	1435.0	1251.8
68.94	1420.0	1251.8
68.95	1371.0	1251.8
68.96	1338.0	1251.7
68.97	1390.0	1251.7
68.98	1401.0	1251.7
68.99	1392.0	1251.7
69.0	1408.0	1251.7
69.01	1413.0	1251.6
69.02	1335.0	1251.6
69.03	1395.0	1251.6
69.04	1374.0	1251.6
69.05	1363.0	1251.6
69.06	1427.0	1251.5
69.07	1464.0	1251.5
69.08	1417.0	1251.5
69.09	1392.0	1251.5
69.1	1362.0	1251.4
69.11	1351.0	1251.4
69.12	1351.0	1251.4
69.13	1367.0	1251.4
69.14	1348.0	1251.4
69.15	1310.0	1251.3
69.16	1321.0	1251.3
69.17	1394.0	1251.3
69.18	1367.0	1251.3
69.19	1326.0	1251.2
69.2	1314.0	1251.2
69.21	1312.0	1251.2
69.22	1323.0	1251.2
69.23	1362.0	1251.2
69.24	1360.0	1251.1
69.25	1325.0	1251.1
69.26	1296.0	1251.1
69.27	1312.0	1251.1
69.28	1320.0	1251.0
69.29	1356.0	1251.0
69.3	1316.0	1251.0
69.31	1326.0	1251.0
69.32	1331.0	1251.0
69.33	1316.0	1250.9
69.34	1292.0	1250.9
69.35	1306.0	1250.9
69.36	1307.0	1250.9
69.37	1308.0	1250.8
69.38	1323.0	1250.8
69.39	1320.0	1250.8
69.4	1318.0	1250.8
69.41	1315.0	1250.8
69.42	1330.0	1250.7
69.43	1312.0	1250.7
69.44	1333.0	1250.7
69.45	1324.0	1250.7
69.46	1277.0	1250.6
69.47	1289.0	1250.6
69.48	1303.0	1250.6
69.49	1325.0	1250.6
69.5	1276.0	1250.6
69.51	1312.0	1250.5
69.52	1291.0	1250.5
69.53	1289.0	1250.5
69.54	1269.0	1250.5
69.55	1289.0	1250.4
69.56	1328.0	1250.4
69.57	1304.0	1250.4
69.58	1295.0	1250.4
69.59	1331.0	1250.4
69.6	1339.0	1250.3
69.61	1296.0	1250.3
69.62	1311.0	1250.3
69.63	1347.0	1250.3
69.64	1295.0	1250.2
69.65	1252.0	1250.2
69.66	1292.0	1250.2
69.67	1328.0	1250.2
69.68	1254.0	1250.2
69.69	1265.0	1250.1
69.7	1312.0	1250.1
69.71	1314.0	1250.1
69.72	1279.0	1250.1
69.73	1297.0	1250.0
69.74	1305.0	1250.0
69.75	1326.0	1250.0
69.76	1309.0	1250.0
69.77	1309.0	1250.0
69.78	1301.0	1249.9
69.79	1279.0	1249.9
69.8	1312.0	1249.9
69.81	1334.0	1249.9
69.82	1311.0	1249.8
69.83	1309.0	1249.8
69.84	1316.0	1249.8
69.85	1299.0	1249.8
69.86	1291.0	1249.8
69.87	1293.0	1249.7
69.88	1286.0	1249.7
69.89	1299.0	1249.7
69.9	1291.0	1249.7
69.91	1274.0	1249.6
69.92	1267.0	1249.6
69.93	1287.0	1249.6
69.94	1268.0	1249.6
69.95	1287.0	1249.6
69.96	1290.0	1249.5
69.97	1276.0	1249.5
69.98	1289.0	1249.5
69.99	1275.0	1249.5
70.0	1281.0	1249.4
70.01	1282.0	1249.4
70.02	1295.0	1249.4
70.03	1279.0	1249.4
70.04	1260.0	1249.4
70.05	1278.0	1249.3
70.06	1269.0	1249.3
70.07	1265.0	1249.3
70.08	1285.0	1249.3
70.09	1295.0	1249.3
70.1	1274.0	1249.2
70.11	1279.0	1249.2
70.12	1283.0	1249.2
70.13	1250.0	1249.2
70.14	1252.0	1249.1
70.15	1288.0	1249.1
70.16	1297.0	1249.1
70.17	1260.0	1249.1
70.18	1248.0	1249.1
70.19	1254.0	1249.0
70.2	1286.0	1249.0
70.21	1292.0	1249.0
70.22	1266.0	1249.0
70.23	1255.0	1249.0
70.24	1254.0	1248.9
70.25	1281.0	1248.9
70.26	1249.0	1248.9
70.27	1237.0	1248.9
70.28	1296.0	1248.8
70.29	1317.0	1248.8
70.3	1341.0	1248.8
70.31	1308.0	1248.8
70.32	1311.0	1248.8
70.33	1295.0	1248.7
70.34	1266.0	1248.7
70.35	1288.0	1248.7
70.36	1270.0	1248.7
70.37	1279.0	1248.7
70.38	1275.0	1248.6
70.39	1269.0	1248.6
70.4	1286.0	1248.6
70.41	1293.0	1248.6
70.42	1287.0	1248.6
70.43	1293.0	1248.5
70.44	1302.0	1248.5
70.45	1295.0	1248.5
70.46	1279.0	1248.5
70.47	1260.0	1248.4
70.48	1308.0	1248.4
70.49	1280.0	1248.4
70.5	1252.0	1248.4
70.51	1303.0	1248.4
70.52	1283.0	1248.3
70.53	1268.0	1248.3
70.54	1272.0	1248.3
70.55	1252.0	1248.3
70.56	1260.0	1248.3
70.57	1281.0	1248.2
70.58	1279.0	1248.2
70.59	1276.0	1248.2
70.6	1282.0	1248.2
70.61	1303.0	1248.2
70.62	1265.0	1248.1
70.63	1206.0	1248.1
70.64	1210.0	1248.1
70.65	1228.0	1248.1
70.66	1259.0	1248.1
70.67	1279.0	1248.0
70.68	1244.0	1248.0
70.69	1240.0	1248.0
70.7	1284.0	1248.0
70.71	1316.0	1248.0
70.72	1291.0	1247.9
70.73	1269.0	1247.9
70.74	1269.0	1247.9
70.75	1236.0	1247.9
70.76	1266.0	1247.9
70.77	1234.0	1247.8
70.78	1240.0	1247.8
70.79	1262.0	1247.8
70.8	1273.0	1247.8
70.81	1262.0	1247.8
70.82	1271.0	1247.7
70.83	1278.0	1247.7
70.84	1257.0	1247.7
70.85	1253.0	1247.7
70.86	1265.0	1247.7
70.87	1262.0	1247.6
70.88	1278.0	1247.6
70.89	1295.0	1247.6
70.9	1302.0	1247.6
70.91	1278.0	1247.6
70.92	1318.0	1247.6
70.93	1343.0	1247.5
70.94	1280.0	1247.5
70.95	1255.0	1247.5
70.96	1258.0	1247.5
70.97	1256.0	1247.5
70.98	1268.0	1247.4
70.99	1287.0	1247.4
71.0	1299.0	1247.4
71.01	1298.0	1247.4
71.02	1280.0	1247.4
71.03	1271.0	1247.3
71.04	1280.0	1247.3
71.05	1308.0	1247.3
71.06	1336.0	1247.3
71.07	1315.0	1247.3
71.08	1309.0	1247.3
71.09	1258.0	1247.2
71.1	1257.0	1247.2
71.11	1300.0	1247.2
71.12	1310.0	1247.2
71.13	1288.0	1247.2
71.14	1249.0	1247.1
71.15	1295.0	1247.1
71.16	1258.0	1247.1
71.17	1263.0	1247.1
71.18	1259.0	1247.1
71.19	1279.0	1247.1
71.2	1265.0	1247.0
71.21	1273.0	1247.0
71.22	1303.0	1247.0
71.23	1289.0	1247.0
71.24	1302.0	1247.0
71.25	1280.0	1247.0
71.26	1271.0	1246.9
71.27	1254.0	1246.9
71.28	1269.0	1246.9
71.29	1310.0	1246.9
71.3	1307.0	1246.9
71.31	1320.0	1246.9
71.32	1294.0	1246.8
71.33	1258.0	1246.8
71.34	1275.0	1246.8
71.35	1223.0	1246.8
71.36	1331.0	1246.8
71.37	1313.0	1246.8
71.38	1236.0	1246.7
71.39	1266.0	1246.7
71.4	1269.0	1246.7
71.41	1290.0	1246.7
71.42	1304.0	1246.7
71.43	1314.0	1246.7
71.44	1278.0	1246.6
71.45	1269.0	1246.6
71.46	1275.0	1246.6
71.47	1308.0	1246.6
71.48	1336.0	1246.6
71.49	1333.0	1246.6
71.5	1339.0	1246.5
71.51	1316.0	1246.5
71.52	1279.0	1246.5
71.53	1289.0	1246.5
71.54	1322.0	1246.5
71.55	1261.0	1246.5
71.56	1274.0	1246.5
71.57	1312.0	1246.4
71.58	1322.0	1246.4
71.59	1349.0	1246.4
71.6	1299.0	1246.4
71.61	1357.0	1246.4
71.62	1336.0	1246.4
71.63	1344.0	1246.3
71.64	1327.0	1246.3
71.65	1316.0	1246.3
71.66	1326.0	1246.3
71.67	1323.0	1246.3
71.68	1361.0	1246.3
71.69	1336.0	1246.3
71.7	1309.0	1246.2
71.71	1313.0	1246.2
71.72	1315.0	1246.2
71.73	1347.0	1246.2
71.74	1352.0	1246.2
71.75	1294.0	1246.2
71.76	1322.0	1246.2
71.77	1335.0	1246.1
71.78	1356.0	1246.1
71.79	1364.0	1246.1
71.8	1405.0	1246.1
71.81	1406.0	1246.1
71.82	1334.0	1246.1
71.83	1322.0	1246.1
71.84	1346.0	1246.1
71.85	1337.0	1246.0
71.86	1336.0	1246.0
71.87	1340.0	1246.0
71.88	1357.0	1246.0
71.89	1361.0	1246.0
71.9	1328.0	1246.0
71.91	1336.0	1246.0
71.92	1404.0	1246.0
71.93	1437.0	1245.9
71.94	1386.0	1245.9
71.95	1399.0	1245.9
71.96	1392.0	1245.9
71.97	1386.0	1245.9
71.98	1360.0	1245.9
71.99	1375.0	1245.9
72.0	1368.0	1245.9
72.01	1374.0	1245.8
72.02	1358.0	1245.8
72.03	1315.0	1245.8
72.04	1373.0	1245.8
72.05	1386.0	1245.8
72.06	1324.0	1245.8
72.07	1374.0	1245.8
72.08	1356.0	1245.8
72.09	1312.0	1245.7
72.1	1351.0	1245.7
72.11	1372.0	1245.7
72.12	1347.0	1245.7
72.13	1325.0	1245.7
72.14	1359.0	1245.7
72.15	1376.0	1245.7
72.16	1346.0	1245.7
72.17	1296.0	1245.7
72.18	1297.0	1245.7
72.19	1296.0	1245.6
72.2	1271.0	1245.6
72.21	1286.0	1245.6
72.22	1279.0	1245.6
72.23	1297.0	1245.6
72.24	1303.0	1245.6
72.25	1330.0	1245.6
72.26	1344.0	1245.6
72.27	1317.0	1245.6
72.28	1288.0	1245.6
72.29	1315.0	1245.5
72.3	1285.0	1245.5
72.31	1281.0	1245.5
72.32	1285.0	1245.5
72.33	1296.0	1245.5
72.34	1286.0	1245.5
72.35	1274.0	1245.5
72.36	1294.0	1245.5
72.37	1305.0	1245.5
72.38	1277.0	1245.5
72.39	1310.0	1245.5
72.4	1297.0	1245.4
72.41	1275.0	1245.4
72.42	1292.0	1245.4
72.43	1294.0	1245.4
72.44	1271.0	1245.4
72.45	1283.0	1245.4
72.46	1342.0	1245.4
72.47	1338.0	1245.4
72.48	1299.0	1245.4
72.49	1289.0	1245.4
72.5	1275.0	1245.4
72.51	1276.0	1245.4
72.52	1226.0	1245.4
72.53	1252.0	1245.3
72.54	1273.0	1245.3
72.55	1270.0	1245.3
72.56	1273.0	1245.3
72.57	1204.0	1245.3
72.58	1223.0	1245.3
72.59	1258.0	1245.3
72.6	1302.0	1245.3
72.61	1317.0	1245.3
72.62	1330.0	1245.3
72.63	1292.0	1245.3
72.64	1303.0	1245.3
72.65	1269.0	1245.3
72.66	1268.0	1245.3
72.67	1275.0	1245.3
72.68	1277.0	1245.3
72.69	1298.0	1245.2
72.7	1249.0	1245.2
72.71	1284.0	1245.2
72.72	1281.0	1245.2
72.73	1289.0	1245.2
72.74	1290.0	1245.2
72.75	1266.0	1245.2
72.76	1287.0	1245.2
72.77	1308.0	1245.2
72.78	1318.0	1245.2
72.79	1312.0	1245.2
72.8	1262.0	1245.2
72.81	1298.0	1245.2
72.82	1313.0	1245.2
72.83	1304.0	1245.2
72.84	1295.0	1245.2
72.85	1263.0	1245.2
72.86	1226.0	1245.2
72.87	1258.0	1245.2
72.88	1315.0	1245.2
72.89	1301.0	1245.2
72.9	1296.0	1245.2
72.91	1287.0	1245.2
72.92	1304.0	1245.1
72.93	1266.0	1245.1
72.94	1241.0	1245.1
72.95	1270.0	1245.1
72.96	1267.0	1245.1
72.97	1259.0	1245.1
72.98	1259.0	1245.1
72.99	1236.0	1245.1
73.0	1211.0	1245.1
73.01	1232.0	1245.1
73.02	1261.0	1245.1
73.03	1280.0	1245.1
73.04	1233.0	1245.1
73.05	1275.0	1245.1
73.06	1313.0	1245.1
73.07	1324.0	1245.1
73.08	1329.0	1245.1
73.09	1292.0	1245.1
73.1	1292.0	1245.1
73.11	1275.0	1245.1
73.12	1253.0	1245.1
73.13	1297.0	1245.1
73.14	1272.0	1245.1
73.15	1258.0	1245.1
73.16	1283.0	1245.1
73.17	1260.0	1245.1
73.18	1286.0	1245.1
73.19	1302.0	1245.1
73.2	1283.0	1245.1
73.21	1251.0	1245.1
73.22	1244.0	1245.1
73.23	1283.0	1245.1
73.24	1261.0	1245.1
73.25	1287.0	1245.1
73.26	1214.0	1245.1
73.27	1241.0	1245.1
73.28	1252.0	1245.1
73.29	1249.0	1245.1
73.3	1247.0	1245.1
73.31	1253.0	1245.1
73.32	1281.0	1245.1
73.33	1316.0	1245.1
73.34	1283.0	1245.1
73.35	1242.0	1245.1
73.36	1235.0	1245.1
73.37	1306.0	1245.1
73.38	1329.0	1245.1
73.39	1271.0	1245.1
73.4	1226.0	1245.1
73.41	1239.0	1245.1
73.42	1260.0	1245.2
73.43	1264.0	1245.2
73.44	1238.0	1245.2
73.45	1278.0	1245.2
73.46	1258.0	1245.2
73.47	1237.0	1245.2
73.48	1227.0	1245.2
73.49	1237.0	1245.2
73.5	1230.0	1245.2
73.51	1265.0	1245.2
73.52	1251.0	1245.2
73.53	1261.0	1245.2
73.54	1297.0	1245.2
73.55	1299.0	1245.2
73.56	1293.0	1245.2
73.57	1259.0	1245.2
73.58	1269.0	1245.2
73.59	1262.0	1245.2
73.6	1275.0	1245.2
73.61	1273.0	1245.2
73.62	1279.0	1245.2
73.63	1283.0	1245.2
73.64	1271.0	1245.3
73.65	1303.0	1245.3
73.66	1277.0	1245.3
73.67	1248.0	1245.3
73.68	1232.0	1245.3
73.69	1244.0	1245.3
73.7	1263.0	1245.3
73.71	1305.0	1245.3
73.72	1298.0	1245.3
73.73	1348.0	1245.3
73.74	1304.0	1245.3
73.75	1271.0	1245.3
73.76	1287.0	1245.3
73.77	1306.0	1245.3
73.78	1295.0	1245.4
73.79	1280.0	1245.4
73.8	1235.0	1245.4
73.81	1203.0	1245.4
73.82	1248.0	1245.4
73.83	1303.0	1245.4
73.84	1265.0	1245.4
73.85	1288.0	1245.4
73.86	1284.0	1245.4
73.87	1262.0	1245.4
73.88	1232.0	1245.4
73.89	1252.0	1245.4
73.9	1297.0	1245.5
73.91	1326.0	1245.5
73.92	1304.0	1245.5
73.93	1322.0	1245.5
73.94	1269.0	1245.5
73.95	1272.0	1245.5
73.96	1303.0	1245.5
73.97	1305.0	1245.5
73.98	1265.0	1245.5
73.99	1249.0	1245.6
74.0	1228.0	1245.6
74.01	1247.0	1245.6
74.02	1264.0	1245.6
74.03	1268.0	1245.6
74.04	1286.0	1245.6
74.05	1243.0	1245.6
74.06	1264.0	1245.6
74.07	1271.0	1245.6
74.08	1279.0	1245.7
74.09	1321.0	1245.7
74.1	1292.0	1245.7
74.11	1279.0	1245.7
74.12	1319.0	1245.7
74.13	1267.0	1245.7
74.14	1317.0	1245.7
74.15	1271.0	1245.7
74.16	1284.0	1245.8
74.17	1308.0	1245.8
74.18	1281.0	1245.8
74.19	1302.0	1245.8
74.2	1265.0	1245.8
74.21	1256.0	1245.8
74.22	1279.0	1245.8
74.23	1273.0	1245.9
74.24	1252.0	1245.9
74.25	1248.0	1245.9
74.26	1266.0	1245.9
74.27	1308.0	1245.9
74.28	1244.0	1245.9
74.29	1247.0	1245.9
74.3	1281.0	1246.0
74.31	1312.0	1246.0
74.32	1300.0	1246.0
74.33	1236.0	1246.0
74.34	1272.0	1246.0
74.35	1270.0	1246.0
74.36	1250.0	1246.0
74.37	1268.0	1246.1
74.38	1265.0	1246.1
74.39	1261.0	1246.1
74.4	1255.0	1246.1
74.41	1270.0	1246.1
74.42	1319.0	1246.1
74.43	1298.0	1246.2
74.44	1304.0	1246.2
74.45	1324.0	1246.2
74.46	1303.0	1246.2
74.47	1282.0	1246.2
74.48	1255.0	1246.2
74.49	1279.0	1246.3
74.5	1255.0	1246.3
74.51	1264.0	1246.3
74.52	1259.0	1246.3
74.53	1256.0	1246.3
74.54	1256.0	1246.4
74.55	1257.0	1246.4
74.56	1266.0	1246.4
74.57	1298.0	1246.4
74.58	1311.0	1246.4
74.59	1303.0	1246.4
74.6	1279.0	1246.5
74.61	1271.0	1246.5
74.62	1260.0	1246.5
74.63	1271.0	1246.5
74.64	1303.0	1246.5
74.65	1295.0	1246.6
74.66	1302.0	1246.6
74.67	1295.0	1246.6
74.68	1325.0	1246.6
74.69	1314.0	1246.6
74.7	1250.0	1246.7
74.71	1286.0	1246.7
74.72	1302.0	1246.7
74.73	1286.0	1246.7
74.74	1275.0	1246.7
74.75	1280.0	1246.8
74.76	1274.0	1246.8
74.77	1293.0	1246.8
74.78	1272.0	1246.8
74.79	1299.0	1246.8
74.8	1285.0	1246.9
74.81	1323.0	1246.9
74.82	1336.0	1246.9
74.83	1285.0	1246.9
74.84	1319.0	1247.0
74.85	1275.0	1247.0
74.86	1280.0	1247.0
74.87	1273.0	1247.0
74.88	1232.0	1247.0
74.89	1232.0	1247.1
74.9	1228.0	1247.1
74.91	1282.0	1247.1
74.92	1309.0	1247.1
74.93	1263.0	1247.2
74.94	1258.0	1247.2
74.95	1250.0	1247.2
74.96	1240.0	1247.2
74.97	1267.0	1247.2
74.98	1271.0	1247.3
74.99	1293.0	1247.3
75.0	1292.0	1247.3
75.01	1277.0	1247.3
75.02	1312.0	1247.4
75.03	1322.0	1247.4
75.04	1289.0	1247.4
75.05	1269.0	1247.4
75.06	1256.0	1247.5
75.07	1278.0	1247.5
75.08	1276.0	1247.5
75.09	1300.0	1247.5
75.1	1335.0	1247.6
75.11	1299.0	1247.6
75.12	1302.0	1247.6
75.13	1252.0	1247.6
75.14	1272.0	1247.7
75.15	1303.0	1247.7
75.16	1277.0	1247.7
75.17	1266.0	1247.7
75.18	1251.0	1247.8
75.19	1276.0	1247.8
75.2	1302.0	1247.8
75.21	1312.0	1247.8
75.22	1273.0	1247.9
75.23	1273.0	1247.9
75.24	1321.0	1247.9
75.25	1310.0	1247.9
75.26	1285.0	1248.0
75.27	1278.0	1248.0
75.28	1266.0	1248.0
75.29	1281.0	1248.0
75.3	1310.0	1248.1
75.31	1263.0	1248.1
75.32	1242.0	1248.1
75.33	1245.0	1248.1
75.34	1268.0	1248.2
75.35	1281.0	1248.2
75.36	1315.0	1248.2
75.37	1312.0	1248.3
75.38	1261.0	1248.3
75.39	1332.0	1248.3
75.4	1316.0	1248.3
75.41	1292.0	1248.4
75.42	1307.0	1248.4
75.43	1296.0	1248.4
75.44	1262.0	1248.5
75.45	1281.0	1248.5
75.46	1297.0	1248.5
75.47	1315.0	1248.5
75.48	1334.0	1248.6
75.49	1294.0	1248.6
75.5	1307.0	1248.6
75.51	1311.0	1248.7
75.52	1303.0	1248.7
75.53	1308.0	1248.7
75.54	1324.0	1248.7
75.55	1329.0	1248.8
75.56	1289.0	1248.8
75.57	1269.0	1248.8
75.58	1278.0	1248.9
75.59	1243.0	1248.9
75.6	1257.0	1248.9
75.61	1318.0	1248.9
75.62	1326.0	1249.0
75.63	1304.0	1249.0
75.64	1305.0	1249.0
75.65	1307.0	1249.1
75.66	1335.0	1249.1
75.67	1293.0	1249.1
75.68	1285.0	1249.2
75.69	1289.0	1249.2
75.7	1299.0	1249.2
75.71	1324.0	1249.2
75.72	1343.0	1249.3
75.73	1292.0	1249.3
75.74	1253.0	1249.3
75.75	1279.0	1249.4
75.76	1313.0	1249.4
75.77	1275.0	1249.4
75.78	1279.0	1249.5
75.79	1305.0	1249.5
75.8	1339.0	1249.5
75.81	1331.0	1249.6
75.82	1315.0	1249.6
75.83	1320.0	1249.6
75.84	1294.0	1249.7
75.85	1339.0	1249.7
75.86	1291.0	1249.7
75.87	1299.0	1249.7
75.88	1308.0	1249.8
75.89	1318.0	1249.8
75.9	1359.0	1249.8
75.91	1331.0	1249.9
75.92	1316.0	1249.9
75.93	1338.0	1249.9
75.94	1336.0	1250.0
75.95	1329.0	1250.0
75.96	1368.0	1250.0
75.97	1390.0	1250.1
75.98	1393.0	1250.1
75.99	1383.0	1250.1
76.0	1376.0	1250.2
76.01	1376.0	1250.2
76.02	1336.0	1250.2
76.03	1356.0	1250.3
76.04	1364.0	1250.3
76.05	1385.0	1250.3
76.06	1399.0	1250.4
76.07	1433.0	1250.4
76.08	1381.0	1250.4
76.09	1437.0	1250.5
76.1	1476.0	1250.5
76.11	1405.0	1250.5
76.12	1382.0	1250.6
76.13	1426.0	1250.6
76.14	1462.0	1250.6
76.15	1430.0	1250.7
76.16	1467.0	1250.7
76.17	1463.0	1250.7
76.18	1451.0	1250.8
76.19	1424.0	1250.8
76.2	1487.0	1250.8
76.21	1494.0	1250.9
76.22	1476.0	1250.9
76.23	1442.0	1251.0
76.24	1484.0	1251.0
76.25	1475.0	1251.0
76.26	1468.0	1251.1
76.27	1477.0	1251.1
76.28	1506.0	1251.1
76.29	1502.0	1251.2
76.3	1496.0	1251.2
76.31	1439.0	1251.2
76.32	1474.0	1251.3
76.33	1484.0	1251.3
76.34	1458.0	1251.3
76.35	1450.0	1251.4
76.36	1446.0	1251.4
76.37	1440.0	1251.5
76.38	1433.0	1251.5
76.39	1462.0	1251.5
76.4	1466.0	1251.6
76.41	1474.0	1251.6
76.42	1467.0	1251.6
76.43	1450.0	1251.7
76.44	1405.0	1251.7
76.45	1400.0	1251.7
76.46	1416.0	1251.8
76.47	1440.0	1251.8
76.48	1402.0	1251.9
76.49	1430.0	1251.9
76.5	1406.0	1251.9
76.51	1421.0	1252.0
76.52	1437.0	1252.0
76.53	1409.0	1252.0
76.54	1418.0	1252.1
76.55	1403.0	1252.1
76.56	1380.0	1252.2
76.57	1429.0	1252.2
76.58	1449.0	1252.2
76.59	1392.0	1252.3
76.6	1397.0	1252.3
76.61	1402.0	1252.3
76.62	1427.0	1252.4
76.63	1396.0	1252.4
76.64	1337.0	1252.5
76.65	1412.0	1252.5
76.66	1385.0	1252.5
76.67	1362.0	1252.6
76.68	1378.0	1252.6
76.69	1362.0	1252.6
76.7	1353.0	1252.7
76.71	1354.0	1252.7
76.72	1353.0	1252.8
76.73	1349.0	1252.8
76.74	1340.0	1252.8
76.75	1326.0	1252.9
76.76	1344.0	1252.9
76.77	1332.0	1253.0
76.78	1318.0	1253.0
76.79	1322.0	1253.0
76.8	1330.0	1253.1
76.81	1349.0	1253.1
76.82	1357.0	1253.1
76.83	1372.0	1253.2
76.84	1344.0	1253.2
76.85	1326.0	1253.3
76.86	1293.0	1253.3
76.87	1353.0	1253.3
76.88	1298.0	1253.4
76.89	1284.0	1253.4
76.9	1311.0	1253.5
76.91	1369.0	1253.5
76.92	1311.0	1253.5
76.93	1333.0	1253.6
76.94	1272.0	1253.6
76.95	1295.0	1253.7
76.96	1301.0	1253.7
76.97	1288.0	1253.7
76.98	1344.0	1253.8
76.99	1332.0	1253.8
77.0	1309.0	1253.9
77.01	1318.0	1253.9
77.02	1313.0	1253.9
77.03	1292.0	1254.0
77.04	1261.0	1254.0
77.05	1312.0	1254.1
77.06	1313.0	1254.1
77.07	1341.0	1254.1
77.08	1355.0	1254.2
77.09	1314.0	1254.2
77.1	1327.0	1254.3
77.11	1283.0	1254.3
77.12	1273.0	1254.3
77.13	1290.0	1254.4
77.14	1271.0	1254.4
77.15	1274.0	1254.5
77.16	1298.0	1254.5
77.17	1336.0	1254.5
77.18	1323.0	1254.6
77.19	1289.0	1254.6
77.2	1264.0	1254.7
77.21	1280.0	1254.7
77.22	1301.0	1254.8
77.23	1307.0	1254.8
77.24	1288.0	1254.8
77.25	1293.0	1254.9
77.26	1334.0	1254.9
77.27	1273.0	1255.0
77.28	1228.0	1255.0
77.29	1254.0	1255.0
77.3	1280.0	1255.1
77.31	1252.0	1255.1
77.32	1268.0	1255.2
77.33	1309.0	1255.2
77.34	1296.0	1255.3
77.35	1333.0	1255.3
77.36	1281.0	1255.3
77.37	1297.0	1255.4
77.38	1303.0	1255.4
77.39	1275.0	1255.5
77.4	1294.0	1255.5
77.41	1281.0	1255.5
77.42	1310.0	1255.6
77.43	1315.0	1255.6
77.44	1323.0	1255.7
77.45	1319.0	1255.7
77.46	1280.0	1255.8
77.47	1278.0	1255.8
77.48	1291.0	1255.8
77.49	1301.0	1255.9
77.5	1308.0	1255.9
77.51	1356.0	1256.0
77.52	1299.0	1256.0
77.53	1338.0	1256.1
77.54	1291.0	1256.1
77.55	1290.0	1256.1
77.56	1297.0	1256.2
77.57	1321.0	1256.2
77.58	1264.0	1256.3
77.59	1275.0	1256.3
77.6	1337.0	1256.4
77.61	1339.0	1256.4
77.62	1289.0	1256.4
77.63	1277.0	1256.5
77.64	1285.0	1256.5
77.65	1302.0	1256.6
77.66	1308.0	1256.6
77.67	1330.0	1256.7
77.68	1282.0	1256.7
77.69	1318.0	1256.7
77.7	1320.0	1256.8
77.71	1326.0	1256.8
77.72	1319.0	1256.9
77.73	1322.0	1256.9
77.74	1328.0	1257.0
77.75	1246.0	1257.0
77.76	1275.0	1257.1
77.77	1285.0	1257.1
77.78	1311.0	1257.1
77.79	1334.0	1257.2
77.8	1290.0	1257.2
77.81	1313.0	1257.3
77.82	1304.0	1257.3
77.83	1280.0	1257.4
77.84	1267.0	1257.4
77.85	1300.0	1257.4
77.86	1312.0	1257.5
77.87	1296.0	1257.5
77.88	1295.0	1257.6
77.89	1322.0	1257.6
77.9	1353.0	1257.7
77.91	1363.0	1257.7
77.92	1302.0	1257.8
77.93	1320.0	1257.8
77.94	1260.0	1257.8
77.95	1259.0	1257.9
77.96	1278.0	1257.9
77.97	1231.0	1258.0
77.98	1272.0	1258.0
77.99	1292.0	1258.1
78.0	1342.0	1258.1
78.01	1323.0	1258.2
78.02	1309.0	1258.2
78.03	1307.0	1258.2
78.04	1310.0	1258.3
78.05	1287.0	1258.3
78.06	1295.0	1258.4
78.07	1334.0	1258.4
78.08	1344.0	1258.5
78.09	1332.0	1258.5
78.1	1281.0	1258.6
78.11	1350.0	1258.6
78.12	1345.0	1258.6
78.13	1320.0	1258.7
78.14	1301.0	1258.7
78.15	1306.0	1258.8
78.16	1324.0	1258.8
78.17	1348.0	1258.9
78.18	1350.0	1258.9
78.19	1341.0	1259.0
78.2	1333.0	1259.0
78.21	1297.0	1259.0
78.22	1310.0	1259.1
78.23	1314.0	1259.1
78.24	1336.0	1259.2
78.25	1341.0	1259.2
78.26	1341.0	1259.3
78.27	1392.0	1259.3
78.28	1393.0	1259.4
78.29	1401.0	1259.4
78.3	1392.0	1259.5
78.31	1332.0	1259.5
78.32	1325.0	1259.5
78.33	1357.0	1259.6
78.34	1365.0	1259.6
78.35	1404.0	1259.7
78.36	1350.0	1259.7
78.37	1262.0	1259.8
78.38	1294.0	1259.8
78.39	1367.0	1259.9
78.4	1380.0	1259.9
78.41	1357.0	1260.0
78.42	1348.0	1260.0
78.43	1374.0	1260.1
78.44	1371.0	1260.1
78.45	1377.0	1260.1
78.46	1390.0	1260.2
78.47	1323.0	1260.2
78.48	1307.0	1260.3
78.49	1360.0	1260.3
78.5	1367.0	1260.4
78.51	1340.0	1260.4
78.52	1298.0	1260.5
78.53	1354.0	1260.5
78.54	1372.0	1260.6
78.55	1368.0	1260.6
78.56	1403.0	1260.7
78.57	1391.0	1260.7
78.58	1391.0	1260.7
78.59	1375.0	1260.8
78.6	1374.0	1260.8
78.61	1430.0	1260.9
78.62	1414.0	1260.9
78.63	1424.0	1261.0
78.64	1438.0	1261.0
78.65	1408.0	1261.1
78.66	1378.0	1261.1
78.67	1412.0	1261.2
78.68	1407.0	1261.2
78.69	1359.0	1261.3
78.7	1377.0	1261.3
78.71	1404.0	1261.4
78.72	1407.0	1261.4
78.73	1433.0	1261.5
78.74	1429.0	1261.5
78.75	1374.0	1261.5
78.76	1342.0	1261.6
78.77	1382.0	1261.6
78.78	1393.0	1261.7
78.79	1399.0	1261.7
78.8	1414.0	1261.8
78.81	1431.0	1261.8
78.82	1429.0	1261.9
78.83	1405.0	1261.9
78.84	1415.0	1262.0
78.85	1438.0	1262.0
78.86	1383.0	1262.1
78.87	1353.0	1262.1
78.88	1359.0	1262.2
78.89	1324.0	1262.2
78.9	1317.0	1262.3
78.91	1284.0	1262.3
78.92	1331.0	1262.4
78.93	1407.0	1262.4
78.94	1368.0	1262.5
78.95	1345.0	1262.5
78.96	1336.0	1262.6
78.97	1385.0	1262.6
78.98	1354.0	1262.7
78.99	1344.0	1262.7
79.0	1376.0	1262.8
79.01	1352.0	1262.8
79.02	1334.0	1262.9
79.03	1364.0	1262.9
79.04	1392.0	1262.9
79.05	1372.0	1263.0
79.06	1360.0	1263.0
79.07	1293.0	1263.1
79.08	1351.0	1263.1
79.09	1388.0	1263.2
79.1	1367.0	1263.2
79.11	1353.0	1263.3
79.12	1337.0	1263.3
79.13	1332.0	1263.4
79.14	1326.0	1263.4
79.15	1333.0	1263.5
79.16	1335.0	1263.5
79.17	1359.0	1263.6
79.18	1329.0	1263.6
79.19	1319.0	1263.7
79.2	1339.0	1263.7
79.21	1345.0	1263.8
79.22	1306.0	1263.8
79.23	1297.0	1263.9
79.24	1349.0	1263.9
79.25	1333.0	1264.0
79.26	1313.0	1264.0
79.27	1291.0	1264.1
79.28	1293.0	1264.1
79.29	1323.0	1264.2
79.3	1336.0	1264.2
79.31	1358.0	1264.3
79.32	1326.0	1264.4
79.33	1342.0	1264.4
79.34	1353.0	1264.5
79.35	1344.0	1264.5
79.36	1311.0	1264.6
79.37	1275.0	1264.6
79.38	1265.0	1264.7
79.39	1256.0	1264.7
79.4	1299.0	1264.8
79.41	1336.0	1264.8
79.42	1314.0	1264.9
79.43	1349.0	1264.9
79.44	1328.0	1265.0
79.45	1321.0	1265.0
79.46	1365.0	1265.1
79.47	1290.0	1265.1
79.48	1288.0	1265.2
79.49	1312.0	1265.2
79.5	1288.0	1265.3
79.51	1316.0	1265.3
79.52	1285.0	1265.4
79.53	1319.0	1265.4
79.54	1333.0	1265.5
79.55	1356.0	1265.5
79.56	1358.0	1265.6
79.57	1356.0	1265.6
79.58	1338.0	1265.7
79.59	1343.0	1265.8
79.6	1353.0	1265.8
79.61	1348.0	1265.9
79.62	1340.0	1265.9
79.63	1339.0	1266.0
79.64	1344.0	1266.0
79.65	1308.0	1266.1
79.66	1306.0	1266.1
79.67	1306.0	1266.2
79.68	1302.0	1266.2
79.69	1285.0	1266.3
79.7	1336.0	1266.3
79.71	1354.0	1266.4
79.72	1353.0	1266.4
79.73	1315.0	1266.5
79.74	1316.0	1266.6
79.75	1313.0	1266.6
79.76	1317.0	1266.7
79.77	1315.0	1266.7
79.78	1320.0	1266.8
79.79	1361.0	1266.8
79.8	1358.0	1266.9
79.81	1328.0	1266.9
79.82	1307.0	1267.0
79.83	1334.0	1267.0
79.84	1320.0	1267.1
79.85	1304.0	1267.2
79.86	1337.0	1267.2
79.87	1342.0	1267.3
79.88	1300.0	1267.3
79.89	1296.0	1267.4
79.9	1351.0	1267.4
79.91	1383.0	1267.5
79.92	1383.0	1267.5
79.93	1337.0	1267.6
79.94	1309.0	1267.7
79.95	1323.0	1267.7
79.96	1364.0	1267.8
79.97	1386.0	1267.8
79.98	1339.0	1267.9
79.99	1334.0	1267.9
80.0	1346.0	1268.0
80.01	1325.0	1268.0
80.02	1347.0	1268.1
80.03	1355.0	1268.2
80.04	1313.0	1268.2
80.05	1330.0	1268.3
80.06	1340.0	1268.3
80.07	1327.0	1268.4
80.08	1314.0	1268.4
80.09	1318.0	1268.5
80.1	1291.0	1268.6
80.11	1374.0	1268.6
80.12	1389.0	1268.7
80.13	1349.0	1268.7
80.14	1354.0	1268.8
80.15	1363.0	1268.8
80.16	1369.0	1268.9
80.17	1357.0	1269.0
80.18	1345.0	1269.0
80.19	1357.0	1269.1
80.2	1350.0	1269.1
80.21	1372.0	1269.2
80.22	1375.0	1269.3
80.23	1369.0	1269.3
80.24	1375.0	1269.4
80.25	1417.0	1269.4
80.26	1359.0	1269.5
80.27	1328.0	1269.5
80.28	1380.0	1269.6
80.29	1412.0	1269.7
80.3	1391.0	1269.7
80.31	1389.0	1269.8
80.32	1431.0	1269.8
80.33	1426.0	1269.9
80.34	1447.0	1270.0
80.35	1459.0	1270.0
80.36	1484.0	1270.1
80.37	1518.0	1270.1
80.38	1473.0	1270.2
80.39	1428.0	1270.3
80.4	1450.0	1270.3
80.41	1518.0	1270.4
80.42	1523.0	1270.4
80.43	1515.0	1270.5
80.44	1498.0	1270.6
80.45	1512.0	1270.6
80.46	1498.0	1270.7
80.47	1492.0	1270.7
80.48	1517.0	1270.8
80.49	1516.0	1270.9
80.5	1568.0	1270.9
80.51	1536.0	1271.0
80.52	1560.0	1271.0
80.53	1566.0	1271.1
80.54	1635.0	1271.2
80.55	1636.0	1271.2
80.56	1619.0	1271.3
80.57	1622.0	1271.4
80.58	1636.0	1271.4
80.59	1663.0	1271.5
80.6	1656.0	1271.5
80.61	1645.0	1271.6
80.62	1657.0	1271.7
80.63	1699.0	1271.7
80.64	1720.0	1271.8
80.65	1699.0	1271.9
80.66	1704.0	1271.9
80.67	1675.0	1272.0
80.68	1695.0	1272.0
80.69	1697.0	1272.1
80.7	1722.0	1272.2
80.71	1726.0	1272.2
80.72	1714.0	1272.3
80.73	1764.0	1272.4
80.74	1759.0	1272.4
80.75	1749.0	1272.5
80.76	1724.0	1272.5
80.77	1740.0	1272.6
80.78	1749.0	1272.7
80.79	1743.0	1272.7
80.8	1729.0	1272.8
80.81	1724.0	1272.9
80.82	1747.0	1272.9
80.83	1737.0	1273.0
80.84	1713.0	1273.1
80.85	1741.0	1273.1
80.86	1714.0	1273.2
80.87	1632.0	1273.3
80.88	1644.0	1273.3
80.89	1685.0	1273.4
80.9	1675.0	1273.5
80.91	1618.0	1273.5
80.92	1614.0	1273.6
80.93	1604.0	1273.6
80.94	1606.0	1273.7
80.95	1672.0	1273.8
80.96	1638.0	1273.8
80.97	1585.0	1273.9
80.98	1641.0	1274.0
80.99	1632.0	1274.0
81.0	1636.0	1274.1
81.01	1635.0	1274.2
81.02	1618.0	1274.2
81.03	1591.0	1274.3
81.04	1545.0	1274.4
81.05	1554.0	1274.4
81.06	1555.0	1274.5
81.07	1531.0	1274.6
81.08	1533.0	1274.6
81.09	1518.0	1274.7
81.1	1549.0	1274.8
81.11	1514.0	1274.9
81.12	1470.0	1274.9
81.13	1465.0	1275.0
81.14	1461.0	1275.1
81.15	1481.0	1275.1
81.16	1519.0	1275.2
81.17	1496.0	1275.3
81.18	1480.0	1275.3
81.19	1479.0	1275.4
81.2	1440.0	1275.5
81.21	1468.0	1275.5
81.22	1438.0	1275.6
81.23	1417.0	1275.7
81.24	1446.0	1275.7
81.25	1446.0	1275.8
81.26	1424.0	1275.9
81.27	1440.0	1276.0
81.28	1452.0	1276.0
81.29	1432.0	1276.1
81.3	1360.0	1276.2
81.31	1348.0	1276.2
81.32	1379.0	1276.3
81.33	1408.0	1276.4
81.34	1438.0	1276.4
81.35	1442.0	1276.5
81.36	1438.0	1276.6
81.37	1417.0	1276.7
81.38	1400.0	1276.7
81.39	1416.0	1276.8
81.4	1428.0	1276.9
81.41	1410.0	1276.9
81.42	1392.0	1277.0
81.43	1389.0	1277.1
81.44	1402.0	1277.2
81.45	1384.0	1277.2
81.46	1405.0	1277.3
81.47	1435.0	1277.4
81.48	1426.0	1277.4
81.49	1400.0	1277.5
81.5	1378.0	1277.6
81.51	1389.0	1277.7
81.52	1442.0	1277.7
81.53	1481.0	1277.8
81.54	1413.0	1277.9
81.55	1377.0	1278.0
81.56	1383.0	1278.0
81.57	1376.0	1278.1
81.58	1395.0	1278.2
81.59	1423.0	1278.3
81.6	1415.0	1278.3
81.61	1372.0	1278.4
81.62	1361.0	1278.5
81.63	1372.0	1278.5
81.64	1361.0	1278.6
81.65	1378.0	1278.7
81.66	1364.0	1278.8
81.67	1336.0	1278.8
81.68	1370.0	1278.9
81.69	1348.0	1279.0
81.7	1311.0	1279.1
81.71	1320.0	1279.1
81.72	1378.0	1279.2
81.73	1345.0	1279.3
81.74	1315.0	1279.4
81.75	1379.0	1279.5
81.76	1392.0	1279.5
81.77	1363.0	1279.6
81.78	1368.0	1279.7
81.79	1382.0	1279.8
81.8	1361.0	1279.8
81.81	1332.0	1279.9
81.82	1351.0	1280.0
81.83	1392.0	1280.1
81.84	1367.0	1280.1
81.85	1366.0	1280.2
81.86	1364.0	1280.3
81.87	1353.0	1280.4
81.88	1314.0	1280.5
81.89	1320.0	1280.5
81.9	1337.0	1280.6
81.91	1348.0	1280.7
81.92	1337.0	1280.8
81.93	1367.0	1280.8
81.94	1361.0	1280.9
81.95	1271.0	1281.0
81.96	1254.0	1281.1
81.97	1336.0	1281.2
81.98	1305.0	1281.2
81.99	1324.0	1281.3
82.0	1345.0	1281.4
82.01	1301.0	1281.5
82.02	1319.0	1281.6
82.03	1369.0	1281.6
82.04	1352.0	1281.7
82.05	1343.0	1281.8
82.06	1347.0	1281.9
82.07	1306.0	1282.0
82.08	1331.0	1282.0
82.09	1329.0	1282.1
82.1	1316.0	1282.2
82.11	1264.0	1282.3
82.12	1309.0	1282.4
82.13	1411.0	1282.4
82.14	1388.0	1282.5
82.15	1345.0	1282.6
82.16	1334.0	1282.7
82.17	1387.0	1282.8
82.18	1340.0	1282.9
82.19	1357.0	1282.9
82.2	1364.0	1283.0
82.21	1337.0	1283.1
82.22	1305.0	1283.2
82.23	1305.0	1283.3
82.24	1334.0	1283.4
82.25	1324.0	1283.4
82.26	1305.0	1283.5
82.27	1339.0	1283.6
82.28	1332.0	1283.7
82.29	1336.0	1283.8
82.3	1320.0	1283.9
82.31	1310.0	1283.9
82.32	1313.0	1284.0
82.33	1311.0	1284.1
82.34	1309.0	1284.2
82.35	1330.0	1284.3
82.36	1365.0	1284.4
82.37	1347.0	1284.4
82.38	1349.0	1284.5
82.39	1320.0	1284.6
82.4	1335.0	1284.7
82.41	1359.0	1284.8
82.42	1392.0	1284.9
82.43	1330.0	1285.0
82.44	1284.0	1285.0
82.45	1277.0	1285.1
82.46	1297.0	1285.2
82.47	1333.0	1285.3
82.48	1313.0	1285.4
82.49	1334.0	1285.5
82.5	1336.0	1285.6
82.51	1291.0	1285.7
82.52	1305.0	1285.7
82.53	1328.0	1285.8
82.54	1291.0	1285.9
82.55	1323.0	1286.0
82.56	1342.0	1286.1
82.57	1317.0	1286.2
82.58	1312.0	1286.3
82.59	1288.0	1286.4
82.6	1254.0	1286.4
82.61	1367.0	1286.5
82.62	1364.0	1286.6
82.63	1334.0	1286.7
82.64	1338.0	1286.8
82.65	1349.0	1286.9
82.66	1322.0	1287.0
82.67	1300.0	1287.1
82.68	1319.0	1287.2
82.69	1314.0	1287.3
82.7	1279.0	1287.3
82.71	1307.0	1287.4
82.72	1332.0	1287.5
82.73	1329.0	1287.6
82.74	1339.0	1287.7
82.75	1318.0	1287.8
82.76	1324.0	1287.9
82.77	1389.0	1288.0
82.78	1357.0	1288.1
82.79	1325.0	1288.2
82.8	1297.0	1288.3
82.81	1296.0	1288.3
82.82	1363.0	1288.4
82.83	1361.0	1288.5
82.84	1325.0	1288.6
82.85	1309.0	1288.7
82.86	1323.0	1288.8
82.87	1355.0	1288.9
82.88	1335.0	1289.0
82.89	1344.0	1289.1
82.9	1347.0	1289.2
82.91	1336.0	1289.3
82.92	1331.0	1289.4
82.93	1333.0	1289.5
82.94	1291.0	1289.6
82.95	1294.0	1289.7
82.96	1282.0	1289.7
82.97	1295.0	1289.8
82.98	1296.0	1289.9
82.99	1275.0	1290.0
83.0	1279.0	1290.1
83.01	1301.0	1290.2
83.02	1315.0	1290.3
83.03	1308.0	1290.4
83.04	1327.0	1290.5
83.05	1320.0	1290.6
83.06	1318.0	1290.7
83.07	1338.0	1290.8
83.08	1307.0	1290.9
83.09	1320.0	1291.0
83.1	1356.0	1291.1
83.11	1353.0	1291.2
83.12	1309.0	1291.3
83.13	1320.0	1291.4
83.14	1314.0	1291.5
83.15	1293.0	1291.6
83.16	1300.0	1291.7
83.17	1334.0	1291.8
83.18	1376.0	1291.9
83.19	1351.0	1291.9
83.2	1303.0	1292.0
83.21	1316.0	1292.1
83.22	1322.0	1292.2
83.23	1312.0	1292.3
83.24	1334.0	1292.4
83.25	1339.0	1292.5
83.26	1290.0	1292.6
83.27	1330.0	1292.7
83.28	1312.0	1292.8
83.29	1305.0	1292.9
83.3	1337.0	1293.0
83.31	1336.0	1293.1
83.32	1291.0	1293.2
83.33	1328.0	1293.3
83.34	1361.0	1293.4
83.35	1346.0	1293.5
83.36	1329.0	1293.6
83.37	1313.0	1293.7
83.38	1292.0	1293.8
83.39	1310.0	1293.9
83.4	1303.0	1294.0
83.41	1315.0	1294.1
83.42	1306.0	1294.2
83.43	1313.0	1294.3
83.44	1328.0	1294.4
83.45	1316.0	1294.5
83.46	1294.0	1294.6
83.47	1294.0	1294.7
83.48	1326.0	1294.8
83.49	1406.0	1294.9
83.5	1380.0	1295.0
83.51	1348.0	1295.1
83.52	1326.0	1295.2
83.53	1324.0	1295.3
83.54	1327.0	1295.4
83.55	1320.0	1295.5
83.56	1334.0	1295.6
83.57	1341.0	1295.7
83.58	1346.0	1295.8
83.59	1341.0	1295.9
83.6	1305.0	1296.0
83.61	1289.0	1296.1
83.62	1311.0	1296.2
83.63	1326.0	1296.3
83.64	1306.0	1296.4
83.65	1335.0	1296.5
83.66	1344.0	1296.6
83.67	1341.0	1296.7
83.68	1306.0	1296.8
83.69	1288.0	1296.9
83.7	1337.0	1297.1
83.71	1345.0	1297.2
83.72	1321.0	1297.3
83.73	1335.0	1297.4
83.74	1371.0	1297.5
83.75	1369.0	1297.6
83.76	1331.0	1297.7
83.77	1311.0	1297.8
83.78	1300.0	1297.9
83.79	1275.0	1298.0
83.8	1267.0	1298.1
83.81	1317.0	1298.2
83.82	1365.0	1298.3
83.83	1318.0	1298.4
83.84	1331.0	1298.5
83.85	1336.0	1298.6
83.86	1343.0	1298.7
83.87	1341.0	1298.8
83.88	1350.0	1298.9
83.89	1347.0	1299.0
83.9	1303.0	1299.1
83.91	1336.0	1299.2
83.92	1367.0	1299.3
83.93	1368.0	1299.4
83.94	1363.0	1299.5
83.95	1368.0	1299.6
83.96	1348.0	1299.7
83.97	1344.0	1299.9
83.98	1334.0	1300.0
83.99	1343.0	1300.1
84.0	1386.0	1300.2
84.01	1356.0	1300.3
84.02	1347.0	1300.4
84.03	1365.0	1300.5
84.04	1335.0	1300.6
84.05	1353.0	1300.7
84.06	1374.0	1300.8
84.07	1384.0	1300.9
84.08	1379.0	1301.0
84.09	1381.0	1301.1
84.1	1388.0	1301.2
84.11	1381.0	1301.3
84.12	1405.0	1301.4
84.13	1383.0	1301.5
84.14	1359.0	1301.6
84.15	1418.0	1301.7
84.16	1433.0	1301.9
84.17	1421.0	1302.0
84.18	1395.0	1302.1
84.19	1368.0	1302.2
84.2	1363.0	1302.3
84.21	1390.0	1302.4
84.22	1416.0	1302.5
84.23	1409.0	1302.6
84.24	1425.0	1302.7
84.25	1434.0	1302.8
84.26	1372.0	1302.9
84.27	1386.0	1303.0
84.28	1379.0	1303.1
84.29	1428.0	1303.2
84.3	1465.0	1303.3
84.31	1472.0	1303.4
84.32	1458.0	1303.6
84.33	1446.0	1303.7
84.34	1452.0	1303.8
84.35	1495.0	1303.9
84.36	1514.0	1304.0
84.37	1547.0	1304.1
84.38	1509.0	1304.2
84.39	1515.0	1304.3
84.4	1538.0	1304.4
84.41	1534.0	1304.5
84.42	1531.0	1304.6
84.43	1526.0	1304.7
84.44	1508.0	1304.8
84.45	1548.0	1304.9
84.46	1518.0	1305.0
84.47	1477.0	1305.2
84.48	1532.0	1305.3
84.49	1526.0	1305.4
84.5	1486.0	1305.5
84.51	1479.0	1305.6
84.52	1534.0	1305.7
84.53	1560.0	1305.8
84.54	1518.0	1305.9
84.55	1520.0	1306.0
84.56	1521.0	1306.1
84.57	1519.0	1306.2
84.58	1508.0	1306.3
84.59	1503.0	1306.4
84.6	1510.0	1306.6
84.61	1469.0	1306.7
84.62	1428.0	1306.8
84.63	1453.0	1306.9
84.64	1475.0	1307.0
84.65	1440.0	1307.1
84.66	1444.0	1307.2
84.67	1452.0	1307.3
84.68	1407.0	1307.4
84.69	1404.0	1307.5
84.7	1449.0	1307.6
84.71	1472.0	1307.7
84.72	1484.0	1307.8
84.73	1478.0	1308.0
84.74	1498.0	1308.1
84.75	1410.0	1308.2
84.76	1409.0	1308.3
84.77	1435.0	1308.4
84.78	1399.0	1308.5
84.79	1360.0	1308.6
84.8	1376.0	1308.7
84.81	1435.0	1308.8
84.82	1415.0	1308.9
84.83	1399.0	1309.0
84.84	1380.0	1309.1
84.85	1386.0	1309.2
84.86	1414.0	1309.4
84.87	1399.0	1309.5
84.88	1386.0	1309.6
84.89	1398.0	1309.7
84.9	1378.0	1309.8
84.91	1388.0	1309.9
84.92	1370.0	1310.0
84.93	1381.0	1310.1
84.94	1362.0	1310.2
84.95	1380.0	1310.3
84.96	1421.0	1310.4
84.97	1364.0	1310.5
84.98	1351.0	1310.6
84.99	1354.0	1310.8
85.0	1373.0	1310.9
85.01	1379.0	1311.0
85.02	1385.0	1311.1
85.03	1375.0	1311.2
85.04	1358.0	1311.3
85.05	1365.0	1311.4
85.06	1398.0	1311.5
85.07	1396.0	1311.6
85.08	1381.0	1311.7
85.09	1401.0	1311.8
85.1	1356.0	1311.9
85.11	1362.0	1312.1
85.12	1346.0	1312.2
85.13	1358.0	1312.3
85.14	1384.0	1312.4
85.15	1331.0	1312.5
85.16	1345.0	1312.6
85.17	1411.0	1312.7
85.18	1380.0	1312.8
85.19	1355.0	1312.9
85.2	1353.0	1313.0
85.21	1351.0	1313.1
85.22	1320.0	1313.2
85.23	1345.0	1313.3
85.24	1378.0	1313.5
85.25	1365.0	1313.6
85.26	1350.0	1313.7
85.27	1373.0	1313.8
85.28	1375.0	1313.9
85.29	1348.0	1314.0
85.3	1330.0	1314.1
85.31	1356.0	1314.2
85.32	1375.0	1314.3
85.33	1337.0	1314.4
85.34	1306.0	1314.5
85.35	1302.0	1314.6
85.36	1357.0	1314.7
85.37	1357.0	1314.9
85.38	1329.0	1315.0
85.39	1337.0	1315.1
85.4	1345.0	1315.2
85.41	1384.0	1315.3
85.42	1411.0	1315.4
85.43	1403.0	1315.5
85.44	1401.0	1315.6
85.45	1378.0	1315.7
85.46	1364.0	1315.8
85.47	1382.0	1315.9
85.48	1389.0	1316.0
85.49	1354.0	1316.1
85.5	1347.0	1316.2
85.51	1340.0	1316.4
85.52	1318.0	1316.5
85.53	1340.0	1316.6
85.54	1341.0	1316.7
85.55	1389.0	1316.8
85.56	1378.0	1316.9
85.57	1359.0	1317.0
85.58	1362.0	1317.1
85.59	1355.0	1317.2
85.6	1352.0	1317.3
85.61	1340.0	1317.4
85.62	1315.0	1317.5
85.63	1308.0	1317.6
85.64	1328.0	1317.7
85.65	1366.0	1317.9
85.66	1399.0	1318.0
85.67	1414.0	1318.1
85.68	1386.0	1318.2
85.69	1384.0	1318.3
85.7	1407.0	1318.4
85.71	1357.0	1318.5
85.72	1364.0	1318.6
85.73	1358.0	1318.7
85.74	1386.0	1318.8
85.75	1380.0	1318.9
85.76	1360.0	1319.0
85.77	1344.0	1319.1
85.78	1366.0	1319.2
85.79	1425.0	1319.3
85.8	1420.0	1319.4
85.81	1336.0	1319.5
85.82	1309.0	1319.7
85.83	1342.0	1319.8
85.84	1353.0	1319.9
85.85	1384.0	1320.0
85.86	1388.0	1320.1
85.87	1379.0	1320.2
85.88	1407.0	1320.3
85.89	1428.0	1320.4
85.9	1400.0	1320.5
85.91	1403.0	1320.6
85.92	1395.0	1320.7
85.93	1411.0	1320.8
85.94	1407.0	1320.9
85.95	1397.0	1321.0
85.96	1395.0	1321.1
85.97	1418.0	1321.2
85.98	1425.0	1321.3
85.99	1399.0	1321.4
86.0	1365.0	1321.5
86.01	1385.0	1321.6
86.02	1442.0	1321.7
86.03	1433.0	1321.9
86.04	1412.0	1322.0
86.05	1423.0	1322.1
86.06	1416.0	1322.2
86.07	1450.0	1322.3
86.08	1476.0	1322.4
86.09	1440.0	1322.5
86.1	1410.0	1322.6
86.11	1423.0	1322.7
86.12	1427.0	1322.8
86.13	1460.0	1322.9
86.14	1491.0	1323.0
86.15	1493.0	1323.1
86.16	1464.0	1323.2
86.17	1476.0	1323.3
86.18	1500.0	1323.4
86.19	1488.0	1323.5
86.2	1449.0	1323.6
86.21	1487.0	1323.7
86.22	1468.0	1323.8
86.23	1463.0	1323.9
86.24	1487.0	1324.0
86.25	1500.0	1324.1
86.26	1495.0	1324.2
86.27	1488.0	1324.3
86.28	1483.0	1324.4
86.29	1487.0	1324.5
86.3	1504.0	1324.6
86.31	1523.0	1324.7
86.32	1558.0	1324.8
86.33	1530.0	1324.9
86.34	1520.0	1325.0
86.35	1539.0	1325.1
86.36	1576.0	1325.2
86.37	1569.0	1325.3
86.38	1562.0	1325.4
86.39	1610.0	1325.5
86.4	1595.0	1325.6
86.41	1567.0	1325.7
86.42	1551.0	1325.8
86.43	1552.0	1326.0
86.44	1622.0	1326.1
86.45	1610.0	1326.2
86.46	1601.0	1326.3
86.47	1583.0	1326.4
86.48	1569.0	1326.5
86.49	1572.0	1326.6
86.5	1605.0	1326.7
86.51	1613.0	1326.8
86.52	1608.0	1326.9
86.53	1576.0	1327.0
86.54	1545.0	1327.1
86.55	1557.0	1327.2
86.56	1589.0	1327.2
86.57	1587.0	1327.3
86.58	1622.0	1327.4
86.59	1608.0	1327.5
86.6	1554.0	1327.6
86.61	1543.0	1327.7
86.62	1577.0	1327.8
86.63	1541.0	1327.9
86.64	1491.0	1328.0
86.65	1547.0	1328.1
86.66	1573.0	1328.2
86.67	1570.0	1328.3
86.68	1556.0	1328.4
86.69	1513.0	1328.5
86.7	1530.0	1328.6
86.71	1571.0	1328.7
86.72	1565.0	1328.8
86.73	1537.0	1328.9
86.74	1518.0	1329.0
86.75	1504.0	1329.1
86.76	1523.0	1329.2
86.77	1547.0	1329.3
86.78	1514.0	1329.4
86.79	1511.0	1329.5
86.8	1542.0	1329.6
86.81	1526.0	1329.7
86.82	1462.0	1329.8
86.83	1444.0	1329.9
86.84	1498.0	1330.0
86.85	1498.0	1330.1
86.86	1511.0	1330.2
86.87	1503.0	1330.3
86.88	1477.0	1330.4
86.89	1504.0	1330.5
86.9	1495.0	1330.6
86.91	1473.0	1330.7
86.92	1473.0	1330.7
86.93	1482.0	1330.8
86.94	1487.0	1330.9
86.95	1475.0	1331.0
86.96	1480.0	1331.1
86.97	1484.0	1331.2
86.98	1485.0	1331.3
86.99	1461.0	1331.4
87.0	1445.0	1331.5
87.01	1416.0	1331.6
87.02	1414.0	1331.7
87.03	1427.0	1331.8
87.04	1434.0	1331.9
87.05	1433.0	1332.0
87.06	1414.0	1332.1
87.07	1457.0	1332.2
87.08	1449.0	1332.2
87.09	1409.0	1332.3
87.1	1434.0	1332.4
87.11	1429.0	1332.5
87.12	1411.0	1332.6
87.13	1418.0	1332.7
87.14	1402.0	1332.8
87.15	1394.0	1332.9
87.16	1422.0	1333.0
87.17	1429.0	1333.1
87.18	1404.0	1333.2
87.19	1399.0	1333.3
87.2	1410.0	1333.3
87.21	1420.0	1333.4
87.22	1430.0	1333.5
87.23	1414.0	1333.6
87.24	1419.0	1333.7
87.25	1410.0	1333.8
87.26	1424.0	1333.9
87.27	1428.0	1334.0
87.28	1431.0	1334.1
87.29	1412.0	1334.2
87.3	1421.0	1334.2
87.31	1457.0	1334.3
87.32	1472.0	1334.4
87.33	1467.0	1334.5
87.34	1432.0	1334.6
87.35	1425.0	1334.7
87.36	1467.0	1334.8
87.37	1456.0	1334.9
87.38	1419.0	1335.0
87.39	1416.0	1335.0
87.4	1467.0	1335.1
87.41	1497.0	1335.2
87.42	1477.0	1335.3
87.43	1451.0	1335.4
87.44	1448.0	1335.5
87.45	1433.0	1335.6
87.46	1446.0	1335.7
87.47	1471.0	1335.7
87.48	1474.0	1335.8
87.49	1467.0	1335.9
87.5	1487.0	1336.0
87.51	1506.0	1336.1
87.52	1546.0	1336.2
87.53	1527.0	1336.3
87.54	1519.0	1336.3
87.55	1483.0	1336.4
87.56	1424.0	1336.5
87.57	1441.0	1336.6
87.58	1476.0	1336.7
87.59	1494.0	1336.8
87.6	1526.0	1336.8
87.61	1520.0	1336.9
87.62	1487.0	1337.0
87.63	1509.0	1337.1
87.64	1535.0	1337.2
87.65	1535.0	1337.3
87.66	1517.0	1337.3
87.67	1521.0	1337.4
87.68	1575.0	1337.5
87.69	1571.0	1337.6
87.7	1541.0	1337.7
87.71	1520.0	1337.8
87.72	1582.0	1337.8
87.73	1611.0	1337.9
87.74	1603.0	1338.0
87.75	1576.0	1338.1
87.76	1586.0	1338.2
87.77	1556.0	1338.2
87.78	1535.0	1338.3
87.79	1569.0	1338.4
87.8	1578.0	1338.5
87.81	1541.0	1338.6
87.82	1546.0	1338.7
87.83	1585.0	1338.7
87.84	1609.0	1338.8
87.85	1578.0	1338.9
87.86	1579.0	1339.0
87.87	1563.0	1339.0
87.88	1554.0	1339.1
87.89	1570.0	1339.2
87.9	1567.0	1339.3
87.91	1574.0	1339.4
87.92	1597.0	1339.4
87.93	1578.0	1339.5
87.94	1519.0	1339.6
87.95	1534.0	1339.7
87.96	1565.0	1339.7
87.97	1588.0	1339.8
87.98	1583.0	1339.9
87.99	1576.0	1340.0
88.0	1569.0	1340.1
88.01	1566.0	1340.1
88.02	1549.0	1340.2
88.03	1520.0	1340.3
88.04	1512.0	1340.4
88.05	1556.0	1340.4
88.06	1544.0	1340.5
88.07	1517.0	1340.6
88.08	1512.0	1340.7
88.09	1491.0	1340.7
88.1	1497.0	1340.8
88.11	1519.0	1340.9
88.12	1534.0	1341.0
88.13	1515.0	1341.0
88.14	1496.0	1341.1
88.15	1469.0	1341.2
88.16	1436.0	1341.2
88.17	1445.0	1341.3
88.18	1456.0	1341.4
88.19	1484.0	1341.5
88.2	1462.0	1341.5
88.21	1437.0	1341.6
88.22	1455.0	1341.7
88.23	1474.0	1341.8
88.24	1497.0	1341.8
88.25	1500.0	1341.9
88.26	1478.0	1342.0
88.27	1454.0	1342.0
88.28	1471.0	1342.1
88.29	1479.0	1342.2
88.3	1454.0	1342.2
88.31	1480.0	1342.3
88.32	1467.0	1342.4
88.33	1471.0	1342.5
88.34	1441.0	1342.5
88.35	1444.0	1342.6
88.36	1413.0	1342.7
88.37	1423.0	1342.7
88.38	1425.0	1342.8
88.39	1420.0	1342.9
88.4	1438.0	1342.9
88.41	1440.0	1343.0
88.42	1423.0	1343.1
88.43	1431.0	1343.1
88.44	1443.0	1343.2
88.45	1434.0	1343.3
88.46	1430.0	1343.3
88.47	1435.0	1343.4
88.48	1413.0	1343.5
88.49	1398.0	1343.5
88.5	1389.0	1343.6
88.51	1403.0	1343.7
88.52	1424.0	1343.7
88.53	1415.0	1343.8
88.54	1443.0	1343.9
88.55	1410.0	1343.9
88.56	1391.0	1344.0
88.57	1360.0	1344.0
88.58	1329.0	1344.1
88.59	1343.0	1344.2
88.6	1404.0	1344.2
88.61	1404.0	1344.3
88.62	1387.0	1344.4
88.63	1394.0	1344.4
88.64	1399.0	1344.5
88.65	1403.0	1344.5
88.66	1409.0	1344.6
88.67	1428.0	1344.7
88.68	1440.0	1344.7
88.69	1405.0	1344.8
88.7	1385.0	1344.8
88.71	1373.0	1344.9
88.72	1357.0	1345.0
88.73	1370.0	1345.0
88.74	1401.0	1345.1
88.75	1404.0	1345.1
88.76	1405.0	1345.2
88.77	1373.0	1345.3
88.78	1364.0	1345.3
88.79	1390.0	1345.4
88.8	1417.0	1345.4
88.81	1402.0	1345.5
88.82	1394.0	1345.5
88.83	1391.0	1345.6
88.84	1384.0	1345.7
88.85	1364.0	1345.7
88.86	1350.0	1345.8
88.87	1374.0	1345.8
88.88	1388.0	1345.9
88.89	1388.0	1345.9
88.9	1387.0	1346.0
88.91	1394.0	1346.0
88.92	1393.0	1346.1
88.93	1393.0	1346.2
88.94	1347.0	1346.2
88.95	1330.0	1346.3
88.96	1365.0	1346.3
88.97	1375.0	1346.4
88.98	1368.0	1346.4
88.99	1390.0	1346.5
89.0	1415.0	1346.5
89.01	1367.0	1346.6
89.02	1343.0	1346.6
89.03	1343.0	1346.7
89.04	1358.0	1346.7
89.05	1362.0	1346.8
89.06	1382.0	1346.8
89.07	1395.0	1346.9
89.08	1381.0	1346.9
89.09	1372.0	1347.0
89.1	1376.0	1347.0
89.11	1388.0	1347.1
89.12	1377.0	1347.1
89.13	1340.0	1347.2
89.14	1344.0	1347.2
89.15	1349.0	1347.3
89.16	1361.0	1347.3
89.17	1355.0	1347.4
89.18	1369.0	1347.4
89.19	1389.0	1347.5
89.2	1389.0	1347.5
89.21	1402.0	1347.5
89.22	1415.0	1347.6
89.23	1395.0	1347.6
89.24	1384.0	1347.7
89.25	1336.0	1347.7
89.26	1310.0	1347.8
89.27	1350.0	1347.8
89.28	1401.0	1347.9
89.29	1381.0	1347.9
89.3	1368.0	1348.0
89.31	1391.0	1348.0
89.32	1408.0	1348.0
89.33	1436.0	1348.1
89.34	1441.0	1348.1
89.35	1408.0	1348.2
89.36	1358.0	1348.2
89.37	1332.0	1348.2
89.38	1369.0	1348.3
89.39	1390.0	1348.3
89.4	1381.0	1348.4
89.41	1372.0	1348.4
89.42	1375.0	1348.4
89.43	1374.0	1348.5
89.44	1371.0	1348.5
89.45	1373.0	1348.6
89.46	1365.0	1348.6
89.47	1351.0	1348.6
89.48	1359.0	1348.7
89.49	1363.0	1348.7
89.5	1369.0	1348.8
89.51	1385.0	1348.8
89.52	1360.0	1348.8
89.53	1362.0	1348.9
89.54	1387.0	1348.9
89.55	1405.0	1348.9
89.56	1401.0	1349.0
89.57	1387.0	1349.0
89.58	1373.0	1349.1
89.59	1406.0	1349.1
89.6	1416.0	1349.1
89.61	1398.0	1349.2
89.62	1381.0	1349.2
89.63	1389.0	1349.2
89.64	1423.0	1349.3
89.65	1412.0	1349.3
89.66	1369.0	1349.3
89.67	1378.0	1349.4
89.68	1390.0	1349.4
89.69	1376.0	1349.4
89.7	1355.0	1349.5
89.71	1376.0	1349.5
89.72	1391.0	1349.5
89.73	1383.0	1349.6
89.74	1389.0	1349.6
89.75	1411.0	1349.6
89.76	1383.0	1349.6
89.77	1354.0	1349.7
89.78	1373.0	1349.7
89.79	1373.0	1349.7
89.8	1345.0	1349.8
89.81	1366.0	1349.8
89.82	1421.0	1349.8
89.83	1419.0	1349.9
89.84	1381.0	1349.9
89.85	1392.0	1349.9
89.86	1391.0	1349.9
89.87	1406.0	1350.0
89.88	1429.0	1350.0
89.89	1424.0	1350.0
89.9	1411.0	1350.0
89.91	1421.0	1350.1
89.92	1443.0	1350.1
89.93	1479.0	1350.1
89.94	1494.0	1350.2
89.95	1461.0	1350.2
89.96	1449.0	1350.2
89.97	1447.0	1350.2
89.98	1436.0	1350.3
89.99	1435.0	1350.3
90.0	1486.0	1350.3
90.01	1492.0	1350.3
90.02	1459.0	1350.4
90.03	1470.0	1350.4
90.04	1486.0	1350.4
90.05	1464.0	1350.4
90.06	1457.0	1350.4
90.07	1467.0	1350.5
90.08	1453.0	1350.5
90.09	1474.0	1350.5
90.1	1483.0	1350.5
90.11	1481.0	1350.6
90.12	1469.0	1350.6
90.13	1476.0	1350.6
90.14	1492.0	1350.6
90.15	1492.0	1350.6
90.16	1485.0	1350.7
90.17	1447.0	1350.7
90.18	1452.0	1350.7
90.19	1468.0	1350.7
90.2	1469.0	1350.7
90.21	1435.0	1350.8
90.22	1425.0	1350.8
90.23	1446.0	1350.8
90.24	1461.0	1350.8
90.25	1488.0	1350.8
90.26	1502.0	1350.9
90.27	1489.0	1350.9
90.28	1454.0	1350.9
90.29	1431.0	1350.9
90.3	1440.0	1350.9
90.31	1469.0	1350.9
90.32	1482.0	1351.0
90.33	1486.0	1351.0
90.34	1481.0	1351.0
90.35	1465.0	1351.0
90.36	1462.0	1351.0
90.37	1468.0	1351.0
90.38	1470.0	1351.1
90.39	1454.0	1351.1
90.4	1438.0	1351.1
90.41	1449.0	1351.1
90.42	1455.0	1351.1
90.43	1439.0	1351.1
90.44	1434.0	1351.1
90.45	1453.0	1351.2
90.46	1437.0	1351.2
90.47	1429.0	1351.2
90.48	1456.0	1351.2
90.49	1488.0	1351.2
90.5	1487.0	1351.2
90.51	1475.0	1351.2
90.52	1452.0	1351.3
90.53	1422.0	1351.3
90.54	1409.0	1351.3
90.55	1411.0	1351.3
90.56	1429.0	1351.3
90.57	1449.0	1351.3
90.58	1436.0	1351.3
90.59	1429.0	1351.3
90.6	1463.0	1351.3
90.61	1436.0	1351.4
90.62	1389.0	1351.4
90.63	1378.0	1351.4
90.64	1376.0	1351.4
90.65	1394.0	1351.4
90.66	1405.0	1351.4
90.67	1403.0	1351.4
90.68	1428.0	1351.4
90.69	1446.0	1351.4
90.7	1426.0	1351.4
90.71	1414.0	1351.5
90.72	1399.0	1351.5
90.73	1402.0	1351.5
90.74	1417.0	1351.5
90.75	1425.0	1351.5
90.76	1434.0	1351.5
90.77	1416.0	1351.5
90.78	1387.0	1351.5
90.79	1398.0	1351.5
90.8	1404.0	1351.5
90.81	1416.0	1351.5
90.82	1430.0	1351.5
90.83	1423.0	1351.5
90.84	1395.0	1351.6
90.85	1379.0	1351.6
90.86	1409.0	1351.6
90.87	1444.0	1351.6
90.88	1448.0	1351.6
90.89	1440.0	1351.6
90.9	1446.0	1351.6
90.91	1436.0	1351.6
90.92	1401.0	1351.6
90.93	1381.0	1351.6
90.94	1392.0	1351.6
90.95	1398.0	1351.6
90.96	1411.0	1351.6
90.97	1412.0	1351.6
90.98	1376.0	1351.6
90.99	1361.0	1351.6
91.0	1394.0	1351.6
91.01	1418.0	1351.6
91.02	1410.0	1351.6
91.03	1401.0	1351.6
91.04	1384.0	1351.6
91.05	1383.0	1351.6
91.06	1400.0	1351.6
91.07	1383.0	1351.6
91.08	1372.0	1351.6
91.09	1365.0	1351.6
91.1	1370.0	1351.6
91.11	1382.0	1351.7
91.12	1395.0	1351.7
91.13	1401.0	1351.7
91.14	1375.0	1351.7
91.15	1387.0	1351.7
91.16	1411.0	1351.7
91.17	1402.0	1351.7
91.18	1392.0	1351.7
91.19	1395.0	1351.7
91.2	1382.0	1351.7
91.21	1373.0	1351.7
91.22	1402.0	1351.7
91.23	1403.0	1351.7
91.24	1422.0	1351.7
91.25	1416.0	1351.7
91.26	1383.0	1351.7
91.27	1383.0	1351.6
91.28	1370.0	1351.6
91.29	1392.0	1351.6
91.3	1372.0	1351.6
91.31	1346.0	1351.6
91.32	1387.0	1351.6
91.33	1392.0	1351.6
91.34	1369.0	1351.6
91.35	1383.0	1351.6
91.36	1396.0	1351.6
91.37	1410.0	1351.6
91.38	1413.0	1351.6
91.39	1403.0	1351.6
91.4	1413.0	1351.6
91.41	1389.0	1351.6
91.42	1371.0	1351.6
91.43	1414.0	1351.6
91.44	1439.0	1351.6
91.45	1419.0	1351.6
91.46	1400.0	1351.6
91.47	1378.0	1351.6
91.48	1379.0	1351.6
91.49	1427.0	1351.6
91.5	1454.0	1351.6
91.51	1425.0	1351.6
91.52	1408.0	1351.6
91.53	1431.0	1351.6
91.54	1470.0	1351.6
91.55	1473.0	1351.5
91.56	1450.0	1351.5
91.57	1445.0	1351.5
91.58	1442.0	1351.5
91.59	1450.0	1351.5
91.6	1455.0	1351.5
91.61	1450.0	1351.5
91.62	1449.0	1351.5
91.63	1461.0	1351.5
91.64	1475.0	1351.5
91.65	1481.0	1351.5
91.66	1496.0	1351.5
91.67	1496.0	1351.5
91.68	1468.0	1351.5
91.69	1459.0	1351.5
91.7	1473.0	1351.4
91.71	1487.0	1351.4
91.72	1486.0	1351.4
91.73	1496.0	1351.4
91.74	1499.0	1351.4
91.75	1491.0	1351.4
91.76	1475.0	1351.4
91.77	1433.0	1351.4
91.78	1443.0	1351.4
91.79	1487.0	1351.4
91.8	1514.0	1351.4
91.81	1500.0	1351.4
91.82	1482.0	1351.3
91.83	1499.0	1351.3
91.84	1488.0	1351.3
91.85	1488.0	1351.3
91.86	1499.0	1351.3
91.87	1493.0	1351.3
91.88	1493.0	1351.3
91.89	1491.0	1351.3
91.9	1490.0	1351.3
91.91	1512.0	1351.3
91.92	1510.0	1351.2
91.93	1477.0	1351.2
91.94	1466.0	1351.2
91.95	1464.0	1351.2
91.96	1467.0	1351.2
91.97	1480.0	1351.2
91.98	1474.0	1351.2
91.99	1489.0	1351.2
92.0	1467.0	1351.2
92.01	1410.0	1351.2
92.02	1446.0	1351.1
92.03	1507.0	1351.1
92.04	1518.0	1351.1
92.05	1483.0	1351.1
92.06	1466.0	1351.1
92.07	1494.0	1351.1
92.08	1479.0	1351.1
92.09	1451.0	1351.1
92.1	1454.0	1351.0
92.11	1430.0	1351.0
92.12	1403.0	1351.0
92.13	1401.0	1351.0
92.14	1413.0	1351.0
92.15	1431.0	1351.0
92.16	1449.0	1351.0
92.17	1443.0	1351.0
92.18	1424.0	1350.9
92.19	1450.0	1350.9
92.2	1455.0	1350.9
92.21	1447.0	1350.9
92.22	1448.0	1350.9
92.23	1439.0	1350.9
92.24	1443.0	1350.9
92.25	1437.0	1350.8
92.26	1421.0	1350.8
92.27	1419.0	1350.8
92.28	1425.0	1350.8
92.29	1440.0	1350.8
92.3	1437.0	1350.8
92.31	1424.0	1350.8
92.32	1413.0	1350.7
92.33	1404.0	1350.7
92.34	1409.0	1350.7
92.35	1406.0	1350.7
92.36	1389.0	1350.7
92.37	1390.0	1350.7
92.38	1405.0	1350.7
92.39	1382.0	1350.6
92.4	1351.0	1350.6
92.41	1381.0	1350.6
92.42	1409.0	1350.6
92.43	1415.0	1350.6
92.44	1386.0	1350.6
92.45	1387.0	1350.6
92.46	1400.0	1350.5
92.47	1384.0	1350.5
92.48	1379.0	1350.5
92.49	1386.0	1350.5
92.5	1387.0	1350.5
92.51	1398.0	1350.5
92.52	1380.0	1350.4
92.53	1372.0	1350.4
92.54	1386.0	1350.4
92.55	1364.0	1350.4
92.56	1356.0	1350.4
92.57	1370.0	1350.4
92.58	1387.0	1350.3
92.59	1387.0	1350.3
92.6	1364.0	1350.3
92.61	1379.0	1350.3
92.62	1405.0	1350.3
92.63	1395.0	1350.3
92.64	1387.0	1350.2
92.65	1393.0	1350.2
92.66	1384.0	1350.2
92.67	1379.0	1350.2
92.68	1366.0	1350.2
92.69	1356.0	1350.2
92.7	1365.0	1350.1
92.71	1404.0	1350.1
92.72	1409.0	1350.1
92.73	1380.0	1350.1
92.74	1402.0	1350.1
92.75	1412.0	1350.0
92.76	1401.0	1350.0
92.77	1416.0	1350.0
92.78	1424.0	1350.0
92.79	1380.0	1350.0
92.8	1373.0	1350.0
92.81	1401.0	1349.9
92.82	1428.0	1349.9
92.83	1405.0	1349.9
92.84	1379.0	1349.9
92.85	1364.0	1349.9
92.86	1349.0	1349.8
92.87	1357.0	1349.8
92.88	1365.0	1349.8
92.89	1365.0	1349.8
92.9	1359.0	1349.8
92.91	1377.0	1349.8
92.92	1384.0	1349.7
92.93	1393.0	1349.7
92.94	1415.0	1349.7
92.95	1409.0	1349.7
92.96	1366.0	1349.7
92.97	1330.0	1349.6
92.98	1346.0	1349.6
92.99	1359.0	1349.6
93.0	1349.0	1349.6
93.01	1353.0	1349.6
93.02	1351.0	1349.5
93.03	1355.0	1349.5
93.04	1374.0	1349.5
93.05	1374.0	1349.5
93.06	1358.0	1349.5
93.07	1385.0	1349.4
93.08	1398.0	1349.4
93.09	1409.0	1349.4
93.1	1385.0	1349.4
93.11	1357.0	1349.4
93.12	1366.0	1349.4
93.13	1395.0	1349.3
93.14	1369.0	1349.3
93.15	1370.0	1349.3
93.16	1402.0	1349.3
93.17	1391.0	1349.3
93.18	1367.0	1349.2
93.19	1354.0	1349.2
93.2	1369.0	1349.2
93.21	1372.0	1349.2
93.22	1386.0	1349.2
93.23	1403.0	1349.1
93.24	1384.0	1349.1
93.25	1328.0	1349.1
93.26	1311.0	1349.1
93.27	1314.0	1349.1
93.28	1359.0	1349.0
93.29	1385.0	1349.0
93.3	1392.0	1349.0
93.31	1401.0	1349.0
93.32	1395.0	1349.0
93.33	1384.0	1348.9
93.34	1381.0	1348.9
93.35	1388.0	1348.9
93.36	1407.0	1348.9
93.37	1402.0	1348.9
93.38	1379.0	1348.8
93.39	1377.0	1348.8
93.4	1380.0	1348.8
93.41	1405.0	1348.8
93.42	1416.0	1348.8
93.43	1390.0	1348.7
93.44	1406.0	1348.7
93.45	1416.0	1348.7
93.46	1400.0	1348.7
93.47	1403.0	1348.6
93.48	1399.0	1348.6
93.49	1402.0	1348.6
93.5	1386.0	1348.6
93.51	1338.0	1348.6
93.52	1344.0	1348.5
93.53	1377.0	1348.5
93.54	1382.0	1348.5
93.55	1385.0	1348.5
93.56	1400.0	1348.5
93.57	1399.0	1348.4
93.58	1372.0	1348.4
93.59	1358.0	1348.4
93.6	1351.0	1348.4
93.61	1366.0	1348.4
93.62	1384.0	1348.3
93.63	1390.0	1348.3
93.64	1397.0	1348.3
93.65	1376.0	1348.3
93.66	1376.0	1348.3
93.67	1393.0	1348.2
93.68	1378.0	1348.2
93.69	1337.0	1348.2
93.7	1306.0	1348.2
93.71	1347.0	1348.2
93.72	1415.0	1348.1
93.73	1423.0	1348.1
93.74	1367.0	1348.1
93.75	1348.0	1348.1
93.76	1372.0	1348.1
93.77	1362.0	1348.0
93.78	1326.0	1348.0
93.79	1356.0	1348.0
93.8	1390.0	1348.0
93.81	1366.0	1347.9
93.82	1346.0	1347.9
93.83	1335.0	1347.9
93.84	1341.0	1347.9
93.85	1337.0	1347.9
93.86	1341.0	1347.8
93.87	1355.0	1347.8
93.88	1327.0	1347.8
93.89	1337.0	1347.8
93.9	1389.0	1347.8
93.91	1423.0	1347.7
93.92	1400.0	1347.7
93.93	1383.0	1347.7
93.94	1375.0	1347.7
93.95	1383.0	1347.7
93.96	1398.0	1347.6
93.97	1405.0	1347.6
93.98	1401.0	1347.6
93.99	1409.0	1347.6
94.0	1386.0	1347.6
94.01	1359.0	1347.5
94.02	1396.0	1347.5
94.03	1418.0	1347.5
94.04	1401.0	1347.5
94.05	1395.0	1347.5
94.06	1402.0	1347.4
94.07	1403.0	1347.4
94.08	1394.0	1347.4
94.09	1396.0	1347.4
94.1	1383.0	1347.4
94.11	1361.0	1347.3
94.12	1363.0	1347.3
94.13	1379.0	1347.3
94.14	1395.0	1347.3
94.15	1398.0	1347.3
94.16	1386.0	1347.2
94.17	1383.0	1347.2
94.18	1385.0	1347.2
94.19	1368.0	1347.2
94.2	1366.0	1347.2
94.21	1386.0	1347.1
94.22	1402.0	1347.1
94.23	1410.0	1347.1
94.24	1384.0	1347.1
94.25	1375.0	1347.0
94.26	1395.0	1347.0
94.27	1393.0	1347.0
94.28	1417.0	1347.0
94.29	1406.0	1347.0
94.3	1408.0	1346.9
94.31	1409.0	1346.9
94.32	1410.0	1346.9
94.33	1374.0	1346.9
94.34	1359.0	1346.9
94.35	1365.0	1346.8
94.36	1376.0	1346.8
94.37	1352.0	1346.8
94.38	1365.0	1346.8
94.39	1369.0	1346.8
94.4	1365.0	1346.7
94.41	1385.0	1346.7
94.42	1388.0	1346.7
94.43	1392.0	1346.7
94.44	1355.0	1346.7
94.45	1322.0	1346.6
94.46	1369.0	1346.6
94.47	1427.0	1346.6
94.48	1468.0	1346.6
94.49	1442.0	1346.6
94.5	1423.0	1346.5
94.51	1406.0	1346.5
94.52	1368.0	1346.5
94.53	1382.0	1346.5
94.54	1415.0	1346.5
94.55	1449.0	1346.4
94.56	1415.0	1346.4
94.57	1390.0	1346.4
94.58	1386.0	1346.4
94.59	1394.0	1346.4
94.6	1394.0	1346.3
94.61	1401.0	1346.3
94.62	1392.0	1346.3
94.63	1385.0	1346.3
94.64	1411.0	1346.3
94.65	1405.0	1346.2
94.66	1382.0	1346.2
94.67	1397.0	1346.2
94.68	1428.0	1346.2
94.69	1411.0	1346.2
94.7	1375.0	1346.1
94.71	1351.0	1346.1
94.72	1382.0	1346.1
94.73	1404.0	1346.1
94.74	1401.0	1346.1
94.75	1374.0	1346.0
94.76	1384.0	1346.0
94.77	1416.0	1346.0
94.78	1417.0	1346.0
94.79	1400.0	1345.9
94.8	1382.0	1345.9
94.81	1398.0	1345.9
94.82	1417.0	1345.9
94.83	1403.0	1345.9
94.84	1401.0	1345.8
94.85	1401.0	1345.8
94.86	1418.0	1345.8
94.87	1425.0	1345.8
94.88	1420.0	1345.8
94.89	1398.0	1345.7
94.9	1394.0	1345.7
94.91	1399.0	1345.7
94.92	1420.0	1345.7
94.93	1422.0	1345.7
94.94	1431.0	1345.6
94.95	1408.0	1345.6
94.96	1418.0	1345.6
94.97	1415.0	1345.6
94.98	1381.0	1345.6
94.99	1386.0	1345.5
95.0	1437.0	1345.5
95.01	1456.0	1345.5
95.02	1421.0	1345.5
95.03	1367.0	1345.5
95.04	1373.0	1345.4
95.05	1408.0	1345.4
95.06	1436.0	1345.4
95.07	1412.0	1345.4
95.08	1417.0	1345.4
95.09	1386.0	1345.3
95.1	1379.0	1345.3
95.11	1390.0	1345.3
95.12	1409.0	1345.3
95.13	1408.0	1345.3
95.14	1392.0	1345.2
95.15	1376.0	1345.2
95.16	1406.0	1345.2
95.17	1388.0	1345.2
95.18	1393.0	1345.2
95.19	1395.0	1345.1
95.2	1390.0	1345.1
95.21	1390.0	1345.1
95.22	1419.0	1345.1
95.23	1404.0	1345.1
95.24	1416.0	1345.0
95.25	1420.0	1345.0
95.26	1361.0	1345.0
95.27	1361.0	1345.0
95.28	1385.0	1345.0
95.29	1402.0	1344.9
95.3	1419.0	1344.9
95.31	1419.0	1344.9
95.32	1427.0	1344.9
95.33	1418.0	1344.9
95.34	1391.0	1344.8
95.35	1347.0	1344.8
95.36	1385.0	1344.8
95.37	1442.0	1344.8
95.38	1407.0	1344.8
95.39	1384.0	1344.7
95.4	1410.0	1344.7
95.41	1411.0	1344.7
95.42	1410.0	1344.7
95.43	1422.0	1344.7
95.44	1420.0	1344.6
95.45	1391.0	1344.6
95.46	1392.0	1344.6
95.47	1372.0	1344.6
95.48	1355.0	1344.6
95.49	1369.0	1344.5
95.5	1385.0	1344.5
95.51	1406.0	1344.5
95.52	1402.0	1344.5
95.53	1391.0	1344.5
95.54	1372.0	1344.4
95.55	1400.0	1344.4
95.56	1420.0	1344.4
95.57	1415.0	1344.4
95.58	1403.0	1344.4
95.59	1375.0	1344.3
95.6	1364.0	1344.3
95.61	1373.0	1344.3
95.62	1385.0	1344.3
95.63	1386.0	1344.3
95.64	1379.0	1344.2
95.65	1391.0	1344.2
95.66	1388.0	1344.2
95.67	1395.0	1344.2
95.68	1433.0	1344.2
95.69	1431.0	1344.1
95.7	1392.0	1344.1
95.71	1345.0	1344.1
95.72	1351.0	1344.1
95.73	1331.0	1344.0
95.74	1345.0	1344.0
95.75	1379.0	1344.0
95.76	1441.0	1344.0
95.77	1406.0	1344.0
95.78	1404.0	1343.9
95.79	1414.0	1343.9
95.8	1373.0	1343.9
95.81	1402.0	1343.9
95.82	1399.0	1343.9
95.83	1411.0	1343.8
95.84	1427.0	1343.8
95.85	1412.0	1343.8
95.86	1367.0	1343.8
95.87	1350.0	1343.8
95.88	1363.0	1343.7
95.89	1361.0	1343.7
95.9	1390.0	1343.7
95.91	1385.0	1343.7
95.92	1382.0	1343.7
95.93	1379.0	1343.6
95.94	1393.0	1343.6
95.95	1369.0	1343.6
95.96	1384.0	1343.6
95.97	1402.0	1343.6
95.98	1405.0	1343.5
95.99	1460.0	1343.5
96.0	1457.0	1343.5
96.01	1435.0	1343.5
96.02	1375.0	1343.5
96.03	1385.0	1343.4
96.04	1426.0	1343.4
96.05	1422.0	1343.4
96.06	1412.0	1343.4
96.07	1407.0	1343.4
96.08	1376.0	1343.3
96.09	1408.0	1343.3
96.1	1414.0	1343.3
96.11	1386.0	1343.3
96.12	1380.0	1343.3
96.13	1385.0	1343.2
96.14	1395.0	1343.2
96.15	1401.0	1343.2
96.16	1392.0	1343.2
96.17	1366.0	1343.2
96.18	1381.0	1343.1
96.19	1418.0	1343.1
96.2	1441.0	1343.1
96.21	1382.0	1343.1
96.22	1364.0	1343.1
96.23	1414.0	1343.0
96.24	1415.0	1343.0
96.25	1387.0	1343.0
96.26	1391.0	1343.0
96.27	1382.0	1343.0
96.28	1349.0	1342.9
96.29	1351.0	1342.9
96.3	1354.0	1342.9
96.31	1366.0	1342.9
96.32	1404.0	1342.9
96.33	1391.0	1342.8
96.34	1387.0	1342.8
96.35	1422.0	1342.8
96.36	1457.0	1342.8
96.37	1436.0	1342.8
96.38	1387.0	1342.7
96.39	1391.0	1342.7
96.4	1425.0	1342.7
96.41	1395.0	1342.7
96.42	1418.0	1342.7
96.43	1408.0	1342.6
96.44	1368.0	1342.6
96.45	1374.0	1342.6
96.46	1402.0	1342.6
96.47	1420.0	1342.6
96.48	1393.0	1342.5
96.49	1401.0	1342.5
96.5	1424.0	1342.5
96.51	1407.0	1342.5
96.52	1415.0	1342.5
96.53	1412.0	1342.4
96.54	1429.0	1342.4
96.55	1422.0	1342.4
96.56	1412.0	1342.4
96.57	1417.0	1342.4
96.58	1422.0	1342.3
96.59	1413.0	1342.3
96.6	1424.0	1342.3
96.61	1400.0	1342.3
96.62	1461.0	1342.3
96.63	1449.0	1342.2
96.64	1420.0	1342.2
96.65	1400.0	1342.2
96.66	1427.0	1342.2
96.67	1434.0	1342.2
96.68	1413.0	1342.1
96.69	1411.0	1342.1
96.7	1404.0	1342.1
96.71	1445.0	1342.1
96.72	1447.0	1342.1
96.73	1422.0	1342.0
96.74	1412.0	1342.0
96.75	1431.0	1342.0
96.76	1412.0	1342.0
96.77	1424.0	1342.0
96.78	1413.0	1341.9
96.79	1370.0	1341.9
96.8	1365.0	1341.9
96.81	1347.0	1341.9
96.82	1361.0	1341.9
96.83	1368.0	1341.8
96.84	1369.0	1341.8
96.85	1407.0	1341.8
96.86	1414.0	1341.8
96.87	1395.0	1341.8
96.88	1385.0	1341.7
96.89	1374.0	1341.7
96.9	1395.0	1341.7
96.91	1432.0	1341.7
96.92	1455.0	1341.7
96.93	1407.0	1341.6
96.94	1381.0	1341.6
96.95	1417.0	1341.6
96.96	1454.0	1341.6
96.97	1458.0	1341.6
96.98	1390.0	1341.5
96.99	1397.0	1341.5
97.0	1418.0	1341.5
97.01	1415.0	1341.5
97.02	1410.0	1341.5
97.03	1369.0	1341.4
97.04	1369.0	1341.4
97.05	1407.0	1341.4
97.06	1412.0	1341.4
97.07	1425.0	1341.4
97.08	1396.0	1341.3
97.09	1396.0	1341.3
97.1	1412.0	1341.3
97.11	1403.0	1341.3
97.12	1416.0	1341.3
97.13	1414.0	1341.3
97.14	1420.0	1341.2
97.15	1413.0	1341.2
97.16	1404.0	1341.2
97.17	1427.0	1341.2
97.18	1438.0	1341.2
97.19	1458.0	1341.1
97.2	1447.0	1341.1
97.21	1492.0	1341.1
97.22	1423.0	1341.1
97.23	1437.0	1341.1
97.24	1402.0	1341.0
97.25	1358.0	1341.0
97.26	1325.0	1341.0
97.27	1395.0	1341.0
97.28	1445.0	1341.0
97.29	1440.0	1340.9
97.3	1441.0	1340.9
97.31	1426.0	1340.9
97.32	1420.0	1340.9
97.33	1439.0	1340.9
97.34	1437.0	1340.8
97.35	1437.0	1340.8
97.36	1400.0	1340.8
97.37	1391.0	1340.8
97.38	1400.0	1340.8
97.39	1413.0	1340.7
97.4	1366.0	1340.7
97.41	1378.0	1340.7
97.42	1361.0	1340.7
97.43	1369.0	1340.7
97.44	1352.0	1340.6
97.45	1360.0	1340.6
97.46	1281.0	1340.6
97.47	1334.0	1340.6
97.48	1393.0	1340.6
97.49	1395.0	1340.5
97.5	1378.0	1340.5
97.51	1399.0	1340.5
97.52	1390.0	1340.5
97.53	1378.0	1340.5
97.54	1394.0	1340.4
97.55	1392.0	1340.4
97.56	1367.0	1340.4
97.57	1394.0	1340.4
97.58	1418.0	1340.4
97.59	1390.0	1340.3
97.6	1396.0	1340.3
97.61	1412.0	1340.3
97.62	1374.0	1340.3
97.63	1340.0	1340.3
97.64	1363.0	1340.2
97.65	1369.0	1340.2
97.66	1318.0	1340.2
97.67	1324.0	1340.2
97.68	1367.0	1340.2
97.69	1346.0	1340.1
97.7	1366.0	1340.1
97.71	1383.0	1340.1
97.72	1376.0	1340.1
97.73	1383.0	1340.1
97.74	1395.0	1340.0
97.75	1389.0	1340.0
97.76	1362.0	1340.0
97.77	1390.0	1340.0
97.78	1413.0	1340.0
97.79	1380.0	1339.9
97.8	1370.0	1339.9
97.81	1414.0	1339.9
97.82	1372.0	1339.9
97.83	1370.0	1339.9
97.84	1401.0	1339.8
97.85	1428.0	1339.8
97.86	1372.0	1339.8
97.87	1362.0	1339.8
97.88	1395.0	1339.8
97.89	1354.0	1339.7
97.9	1359.0	1339.7
97.91	1368.0	1339.7
97.92	1392.0	1339.7
97.93	1385.0	1339.7
97.94	1363.0	1339.6
97.95	1382.0	1339.6
97.96	1384.0	1339.6
97.97	1418.0	1339.6
97.98	1382.0	1339.6
97.99	1378.0	1339.5
98.0	1410.0	1339.5
98.01	1373.0	1339.5
98.02	1366.0	1339.5
98.03	1371.0	1339.5
98.04	1391.0	1339.4
98.05	1393.0	1339.4
98.06	1389.0	1339.4
98.07	1429.0	1339.4
98.08	1466.0	1339.4
98.09	1428.0	1339.3
98.1	1376.0	1339.3
98.11	1377.0	1339.3
98.12	1378.0	1339.3
98.13	1401.0	1339.3
98.14	1364.0	1339.2
98.15	1387.0	1339.2
98.16	1370.0	1339.2
98.17	1366.0	1339.2
98.18	1370.0	1339.2
98.19	1367.0	1339.1
98.2	1376.0	1339.1
98.21	1378.0	1339.1
98.22	1355.0	1339.1
98.23	1409.0	1339.1
98.24	1402.0	1339.0
98.25	1369.0	1339.0
98.26	1349.0	1339.0
98.27	1384.0	1339.0
98.28	1415.0	1339.0
98.29	1385.0	1339.0
98.3	1376.0	1338.9
98.31	1412.0	1338.9
98.32	1403.0	1338.9
98.33	1360.0	1338.9
98.34	1369.0	1338.9
98.35	1421.0	1338.8
98.36	1441.0	1338.8
98.37	1402.0	1338.8
98.38	1361.0	1338.8
98.39	1356.0	1338.8
98.4	1402.0	1338.7
98.41	1401.0	1338.7
98.42	1371.0	1338.7
98.43	1375.0	1338.7
98.44	1354.0	1338.7
98.45	1385.0	1338.6
98.46	1377.0	1338.6
98.47	1376.0	1338.6
98.48	1346.0	1338.6
98.49	1370.0	1338.6
98.5	1411.0	1338.5
98.51	1404.0	1338.5
98.52	1355.0	1338.5
98.53	1381.0	1338.5
98.54	1376.0	1338.5
98.55	1401.0	1338.4
98.56	1426.0	1338.4
98.57	1380.0	1338.4
98.58	1373.0	1338.4
98.59	1386.0	1338.4
98.6	1381.0	1338.3
98.61	1391.0	1338.3
98.62	1407.0	1338.3
98.63	1391.0	1338.3
98.64	1384.0	1338.3
98.65	1429.0	1338.2
98.66	1417.0	1338.2
98.67	1406.0	1338.2
98.68	1349.0	1338.2
98.69	1357.0	1338.2
98.7	1395.0	1338.1
98.71	1427.0	1338.1
98.72	1430.0	1338.1
98.73	1407.0	1338.1
98.74	1407.0	1338.1
98.75	1440.0	1338.0
98.76	1421.0	1338.0
98.77	1370.0	1338.0
98.78	1383.0	1338.0
98.79	1418.0	1338.0
98.8	1424.0	1337.9
98.81	1387.0	1337.9
98.82	1393.0	1337.9
98.83	1397.0	1337.9
98.84	1373.0	1337.9
98.85	1397.0	1337.8
98.86	1425.0	1337.8
98.87	1401.0	1337.8
98.88	1398.0	1337.8
98.89	1411.0	1337.8
98.9	1395.0	1337.7
98.91	1399.0	1337.7
98.92	1404.0	1337.7
98.93	1387.0	1337.7
98.94	1345.0	1337.7
98.95	1378.0	1337.6
98.96	1363.0	1337.6
98.97	1403.0	1337.6
98.98	1416.0	1337.6
98.99	1442.0	1337.6
99.0	1353.0	1337.5
99.01	1345.0	1337.5
99.02	1433.0	1337.5
99.03	1416.0	1337.5
99.04	1389.0	1337.5
99.05	1395.0	1337.4
99.06	1420.0	1337.4
99.07	1407.0	1337.4
99.08	1419.0	1337.4
99.09	1449.0	1337.4
99.1	1439.0	1337.4
99.11	1402.0	1337.3
99.12	1420.0	1337.3
99.13	1387.0	1337.3
99.14	1351.0	1337.3
99.15	1324.0	1337.3
99.16	1375.0	1337.2
99.17	1387.0	1337.2
99.18	1406.0	1337.2
99.19	1411.0	1337.2
99.2	1381.0	1337.2
99.21	1373.0	1337.1
99.22	1368.0	1337.1
99.23	1389.0	1337.1
99.24	1438.0	1337.1
99.25	1435.0	1337.1
99.26	1414.0	1337.0
99.27	1413.0	1337.0
99.28	1407.0	1337.0
99.29	1435.0	1337.0
99.3	1397.0	1337.0
99.31	1406.0	1336.9
99.32	1413.0	1336.9
99.33	1374.0	1336.9
99.34	1355.0	1336.9
99.35	1427.0	1336.9
99.36	1408.0	1336.8
99.37	1468.0	1336.8
99.38	1433.0	1336.8
99.39	1410.0	1336.8
99.4	1386.0	1336.8
99.41	1394.0	1336.7
99.42	1465.0	1336.7
99.43	1445.0	1336.7
99.44	1417.0	1336.7
99.45	1414.0	1336.7
99.46	1405.0	1336.6
99.47	1417.0	1336.6
99.48	1395.0	1336.6
99.49	1391.0	1336.6
99.5	1415.0	1336.6
99.51	1384.0	1336.5
99.52	1372.0	1336.5
99.53	1382.0	1336.5
99.54	1400.0	1336.5
99.55	1430.0	1336.5
99.56	1388.0	1336.4
99.57	1387.0	1336.4
99.58	1403.0	1336.4
99.59	1393.0	1336.4
99.6	1390.0	1336.4
99.61	1345.0	1336.3
99.62	1358.0	1336.3
99.63	1398.0	1336.3
99.64	1404.0	1336.3
99.65	1428.0	1336.3
99.66	1435.0	1336.2
99.67	1405.0	1336.2
99.68	1386.0	1336.2
99.69	1423.0	1336.2
99.7	1434.0	1336.2
99.71	1425.0	1336.1
99.72	1419.0	1336.1
99.73	1404.0	1336.1
99.74	1379.0	1336.1
99.75	1376.0	1336.1
99.76	1389.0	1336.0
99.77	1434.0	1336.0
99.78	1438.0	1336.0
99.79	1418.0	1336.0
99.8	1457.0	1336.0
99.81	1421.0	1336.0
99.82	1410.0	1335.9
99.83	1414.0	1335.9
99.84	1398.0	1335.9
99.85	1385.0	1335.9
99.86	1398.0	1335.9
99.87	1415.0	1335.8
99.88	1421.0	1335.8
99.89	1412.0	1335.8
99.9	1383.0	1335.8
99.91	1402.0	1335.8
99.92	1371.0	1335.7
99.93	1379.0	1335.7
99.94	1348.0	1335.7
99.95	1411.0	1335.7
99.96	1411.0	1335.7
99.97	1390.0	1335.6
99.98	1382.0	1335.6
99.99	1385.0	1335.6
100.0	1392.0	1335.6
