Thick_TiO2_0p6mm_pel
Wavelength = 1.54059 Ã… (Cu)
Angle	I(o)	I(b)
10.0	2363.0	2346.7
10.01	2369.0	2347.0
10.02	2360.0	2347.3
10.03	2343.0	2347.6
10.04	2334.0	2347.9
10.05	2282.0	2348.1
10.06	2311.0	2348.4
10.07	2353.0	2348.7
10.08	2344.0	2349.0
10.09	2352.0	2349.3
10.1	2404.0	2349.6
10.11	2360.0	2349.8
10.12	2285.0	2350.1
10.13	2325.0	2350.4
10.14	2315.0	2350.7
10.15	2389.0	2351.0
10.16	2344.0	2351.2
10.17	2323.0	2351.5
10.18	2294.0	2351.8
10.19	2304.0	2352.1
10.2	2351.0	2352.4
10.21	2349.0	2352.7
10.22	2373.0	2353.0
10.23	2415.0	2353.2
10.24	2389.0	2353.5
10.25	2353.0	2353.8
10.26	2377.0	2354.1
10.27	2385.0	2354.4
10.28	2369.0	2354.7
10.29	2362.0	2355.0
10.3	2395.0	2355.3
10.31	2290.0	2355.6
10.32	2283.0	2355.8
10.33	2322.0	2356.1
10.34	2360.0	2356.4
10.35	2353.0	2356.7
10.36	2407.0	2357.0
10.37	2406.0	2357.3
10.38	2390.0	2357.6
10.39	2321.0	2357.9
10.4	2284.0	2358.2
10.41	2304.0	2358.5
10.42	2310.0	2358.8
10.43	2380.0	2359.1
10.44	2380.0	2359.4
10.45	2299.0	2359.7
10.46	2311.0	2360.0
10.47	2349.0	2360.3
10.48	2334.0	2360.6
10.49	2337.0	2360.9
10.5	2406.0	2361.3
10.51	2391.0	2361.6
10.52	2360.0	2361.9
10.53	2402.0	2362.2
10.54	2356.0	2362.5
10.55	2393.0	2362.8
10.56	2334.0	2363.1
10.57	2322.0	2363.5
10.58	2310.0	2363.8
10.59	2406.0	2364.1
10.6	2352.0	2364.4
10.61	2371.0	2364.8
10.62	2371.0	2365.1
10.63	2365.0	2365.4
10.64	2379.0	2365.7
10.65	2396.0	2366.1
10.66	2375.0	2366.4
10.67	2342.0	2366.7
10.68	2309.0	2367.1
10.69	2378.0	2367.4
10.7	2365.0	2367.8
10.71	2372.0	2368.1
10.72	2366.0	2368.4
10.73	2345.0	2368.8
10.74	2331.0	2369.1
10.75	2346.0	2369.5
10.76	2417.0	2369.8
10.77	2401.0	2370.2
10.78	2377.0	2370.5
10.79	2431.0	2370.9
10.8	2450.0	2371.2
10.81	2421.0	2371.6
10.82	2369.0	2372.0
10.83	2423.0	2372.3
10.84	2452.0	2372.7
10.85	2423.0	2373.1
10.86	2416.0	2373.4
10.87	2414.0	2373.8
10.88	2364.0	2374.2
10.89	2364.0	2374.6
10.9	2381.0	2374.9
10.91	2387.0	2375.3
10.92	2415.0	2375.7
10.93	2335.0	2376.1
10.94	2340.0	2376.5
10.95	2398.0	2376.9
10.96	2379.0	2377.3
10.97	2352.0	2377.6
10.98	2392.0	2378.0
10.99	2426.0	2378.4
11.0	2400.0	2378.8
11.01	2406.0	2379.2
11.02	2402.0	2379.7
11.03	2369.0	2380.1
11.04	2388.0	2380.5
11.05	2332.0	2380.9
11.06	2326.0	2381.3
11.07	2381.0	2381.7
11.08	2410.0	2382.1
11.09	2515.0	2382.6
11.1	2467.0	2383.0
11.11	2375.0	2383.4
11.12	2339.0	2383.9
11.13	2364.0	2384.3
11.14	2361.0	2384.7
11.15	2385.0	2385.2
11.16	2411.0	2385.6
11.17	2414.0	2386.1
11.18	2439.0	2386.5
11.19	2354.0	2387.0
11.2	2344.0	2387.4
11.21	2372.0	2387.9
11.22	2436.0	2388.3
11.23	2420.0	2388.8
11.24	2360.0	2389.3
11.25	2324.0	2389.7
11.26	2440.0	2390.2
11.27	2440.0	2390.7
11.28	2443.0	2391.2
11.29	2445.0	2391.7
11.3	2463.0	2392.1
11.31	2410.0	2392.6
11.32	2412.0	2393.1
11.33	2406.0	2393.6
11.34	2439.0	2394.1
11.35	2451.0	2394.6
11.36	2412.0	2395.1
11.37	2351.0	2395.6
11.38	2384.0	2396.1
11.39	2426.0	2396.7
11.4	2430.0	2397.2
11.41	2485.0	2397.7
11.42	2467.0	2398.2
11.43	2394.0	2398.7
11.44	2409.0	2399.3
11.45	2459.0	2399.8
11.46	2454.0	2400.3
11.47	2369.0	2400.9
11.48	2376.0	2401.4
11.49	2444.0	2402.0
11.5	2403.0	2402.5
11.51	2398.0	2403.1
11.52	2393.0	2403.6
11.53	2426.0	2404.2
11.54	2416.0	2404.7
11.55	2423.0	2405.3
11.56	2403.0	2405.9
11.57	2393.0	2406.4
11.58	2368.0	2407.0
11.59	2496.0	2407.6
11.6	2463.0	2408.2
11.61	2487.0	2408.8
11.62	2430.0	2409.3
11.63	2438.0	2409.9
11.64	2466.0	2410.5
11.65	2495.0	2411.1
11.66	2530.0	2411.7
11.67	2457.0	2412.3
11.68	2440.0	2412.9
11.69	2479.0	2413.5
11.7	2478.0	2414.1
11.71	2454.0	2414.8
11.72	2450.0	2415.4
11.73	2474.0	2416.0
11.74	2451.0	2416.6
11.75	2359.0	2417.3
11.76	2407.0	2417.9
11.77	2420.0	2418.5
11.78	2465.0	2419.2
11.79	2403.0	2419.8
11.8	2447.0	2420.4
11.81	2464.0	2421.1
11.82	2432.0	2421.7
11.83	2463.0	2422.4
11.84	2494.0	2423.0
11.85	2446.0	2423.7
11.86	2447.0	2424.4
11.87	2433.0	2425.0
11.88	2462.0	2425.7
11.89	2466.0	2426.4
11.9	2466.0	2427.1
11.91	2451.0	2427.7
11.92	2419.0	2428.4
11.93	2473.0	2429.1
11.94	2495.0	2429.8
11.95	2500.0	2430.5
11.96	2470.0	2431.2
11.97	2443.0	2431.9
11.98	2465.0	2432.6
11.99	2508.0	2433.3
12.0	2477.0	2434.0
12.01	2463.0	2434.7
12.02	2513.0	2435.4
12.03	2487.0	2436.1
12.04	2493.0	2436.9
12.05	2463.0	2437.6
12.06	2469.0	2438.3
12.07	2501.0	2439.0
12.08	2484.0	2439.8
12.09	2389.0	2440.5
12.1	2471.0	2441.3
12.11	2541.0	2442.0
12.12	2455.0	2442.8
12.13	2434.0	2443.5
12.14	2483.0	2444.3
12.15	2497.0	2445.0
12.16	2523.0	2445.8
12.17	2492.0	2446.5
12.18	2469.0	2447.3
12.19	2487.0	2448.1
12.2	2514.0	2448.9
12.21	2496.0	2449.6
12.22	2463.0	2450.4
12.23	2508.0	2451.2
12.24	2529.0	2452.0
12.25	2533.0	2452.8
12.26	2529.0	2453.6
12.27	2524.0	2454.4
12.28	2534.0	2455.2
12.29	2517.0	2456.0
12.3	2529.0	2456.8
12.31	2521.0	2457.6
12.32	2501.0	2458.4
12.33	2528.0	2459.2
12.34	2518.0	2460.1
12.35	2509.0	2460.9
12.36	2513.0	2461.7
12.37	2480.0	2462.5
12.38	2524.0	2463.4
12.39	2538.0	2464.2
12.4	2477.0	2465.1
12.41	2465.0	2465.9
12.42	2532.0	2466.8
12.43	2491.0	2467.6
12.44	2475.0	2468.5
12.45	2438.0	2469.3
12.46	2461.0	2470.2
12.47	2503.0	2471.0
12.48	2509.0	2471.9
12.49	2462.0	2472.8
12.5	2516.0	2473.7
12.51	2527.0	2474.5
12.52	2512.0	2475.4
12.53	2572.0	2476.3
12.54	2565.0	2477.2
12.55	2551.0	2478.1
12.56	2524.0	2479.0
12.57	2536.0	2479.9
12.58	2587.0	2480.8
12.59	2533.0	2481.7
12.6	2483.0	2482.6
12.61	2437.0	2483.5
12.62	2473.0	2484.4
12.63	2552.0	2485.4
12.64	2540.0	2486.3
12.65	2539.0	2487.2
12.66	2561.0	2488.1
12.67	2583.0	2489.1
12.68	2527.0	2490.0
12.69	2490.0	2491.0
12.7	2530.0	2491.9
12.71	2548.0	2492.9
12.72	2523.0	2493.8
12.73	2499.0	2494.8
12.74	2529.0	2495.7
12.75	2520.0	2496.7
12.76	2490.0	2497.6
12.77	2470.0	2498.6
12.78	2515.0	2499.6
12.79	2529.0	2500.6
12.8	2483.0	2501.5
12.81	2508.0	2502.5
12.82	2514.0	2503.5
12.83	2545.0	2504.5
12.84	2476.0	2505.5
12.85	2528.0	2506.5
12.86	2579.0	2507.5
12.87	2558.0	2508.5
12.88	2565.0	2509.5
12.89	2574.0	2510.5
12.9	2580.0	2511.5
12.91	2565.0	2512.6
12.92	2585.0	2513.6
12.93	2607.0	2514.6
12.94	2565.0	2515.6
12.95	2535.0	2516.7
12.96	2514.0	2517.7
12.97	2549.0	2518.7
12.98	2548.0	2519.8
12.99	2516.0	2520.8
13.0	2559.0	2521.9
13.01	2553.0	2522.9
13.02	2502.0	2524.0
13.03	2484.0	2525.1
13.04	2520.0	2526.1
13.05	2609.0	2527.2
13.06	2595.0	2528.3
13.07	2583.0	2529.3
13.08	2537.0	2530.4
13.09	2536.0	2531.5
13.1	2595.0	2532.6
13.11	2569.0	2533.7
13.12	2571.0	2534.8
13.13	2558.0	2535.9
13.14	2544.0	2537.0
13.15	2541.0	2538.1
13.16	2612.0	2539.2
13.17	2631.0	2540.3
13.18	2561.0	2541.4
13.19	2537.0	2542.5
13.2	2534.0	2543.6
13.21	2562.0	2544.8
13.22	2573.0	2545.9
13.23	2575.0	2547.0
13.24	2560.0	2548.2
13.25	2573.0	2549.3
13.26	2588.0	2550.4
13.27	2634.0	2551.6
13.28	2581.0	2552.7
13.29	2541.0	2553.9
13.3	2575.0	2555.1
13.31	2576.0	2556.2
13.32	2584.0	2557.4
13.33	2527.0	2558.5
13.34	2539.0	2559.7
13.35	2602.0	2560.9
13.36	2622.0	2562.1
13.37	2588.0	2563.3
13.38	2540.0	2564.4
13.39	2538.0	2565.6
13.4	2592.0	2566.8
13.41	2632.0	2568.0
13.42	2604.0	2569.2
13.43	2627.0	2570.4
13.44	2670.0	2571.6
13.45	2652.0	2572.9
13.46	2590.0	2574.1
13.47	2602.0	2575.3
13.48	2598.0	2576.5
13.49	2528.0	2577.7
13.5	2552.0	2579.0
13.51	2564.0	2580.2
13.52	2585.0	2581.4
13.53	2579.0	2582.7
13.54	2627.0	2583.9
13.55	2620.0	2585.1
13.56	2613.0	2586.4
13.57	2658.0	2587.6
13.58	2663.0	2588.9
13.59	2650.0	2590.1
13.6	2610.0	2591.4
13.61	2624.0	2592.7
13.62	2663.0	2593.9
13.63	2636.0	2595.2
13.64	2619.0	2596.5
13.65	2648.0	2597.7
13.66	2639.0	2599.0
13.67	2627.0	2600.3
13.68	2645.0	2601.6
13.69	2669.0	2602.8
13.7	2609.0	2604.1
13.71	2625.0	2605.4
13.72	2621.0	2606.7
13.73	2607.0	2608.0
13.74	2604.0	2609.3
13.75	2619.0	2610.6
13.76	2652.0	2611.9
13.77	2670.0	2613.2
13.78	2671.0	2614.5
13.79	2658.0	2615.8
13.8	2672.0	2617.1
13.81	2674.0	2618.4
13.82	2675.0	2619.8
13.83	2667.0	2621.1
13.84	2649.0	2622.4
13.85	2689.0	2623.7
13.86	2726.0	2625.0
13.87	2668.0	2626.4
13.88	2653.0	2627.7
13.89	2692.0	2629.0
13.9	2688.0	2630.4
13.91	2632.0	2631.7
13.92	2692.0	2633.0
13.93	2714.0	2634.4
13.94	2684.0	2635.7
13.95	2705.0	2637.1
13.96	2740.0	2638.4
13.97	2723.0	2639.7
13.98	2653.0	2641.1
13.99	2650.0	2642.4
14.0	2680.0	2643.8
14.01	2698.0	2645.2
14.02	2700.0	2646.5
14.03	2702.0	2647.9
14.04	2708.0	2649.2
14.05	2742.0	2650.6
14.06	2740.0	2651.9
14.07	2698.0	2653.3
14.08	2701.0	2654.7
14.09	2745.0	2656.0
14.1	2739.0	2657.4
14.11	2752.0	2658.8
14.12	2740.0	2660.2
14.13	2712.0	2661.5
14.14	2738.0	2662.9
14.15	2668.0	2664.3
14.16	2662.0	2665.7
14.17	2708.0	2667.0
14.18	2740.0	2668.4
14.19	2712.0	2669.8
14.2	2757.0	2671.2
14.21	2732.0	2672.6
14.22	2699.0	2674.0
14.23	2746.0	2675.3
14.24	2794.0	2676.7
14.25	2780.0	2678.1
14.26	2732.0	2679.5
14.27	2740.0	2680.9
14.28	2716.0	2682.3
14.29	2738.0	2683.7
14.3	2794.0	2685.1
14.31	2765.0	2686.5
14.32	2742.0	2687.9
14.33	2703.0	2689.3
14.34	2707.0	2690.7
14.35	2734.0	2692.1
14.36	2754.0	2693.5
14.37	2802.0	2694.9
14.38	2754.0	2696.3
14.39	2762.0	2697.7
14.4	2755.0	2699.1
14.41	2720.0	2700.5
14.42	2765.0	2701.9
14.43	2773.0	2703.3
14.44	2764.0	2704.7
14.45	2765.0	2706.1
14.46	2767.0	2707.5
14.47	2770.0	2708.9
14.48	2744.0	2710.3
14.49	2726.0	2711.7
14.5	2740.0	2713.1
14.51	2740.0	2714.5
14.52	2774.0	2715.9
14.53	2762.0	2717.4
14.54	2743.0	2718.8
14.55	2730.0	2720.2
14.56	2729.0	2721.6
14.57	2768.0	2723.0
14.58	2761.0	2724.4
14.59	2738.0	2725.8
14.6	2780.0	2727.2
14.61	2753.0	2728.6
14.62	2769.0	2730.1
14.63	2789.0	2731.5
14.64	2799.0	2732.9
14.65	2786.0	2734.3
14.66	2807.0	2735.7
14.67	2800.0	2737.1
14.68	2765.0	2738.5
14.69	2769.0	2739.9
14.7	2745.0	2741.4
14.71	2723.0	2742.8
14.72	2785.0	2744.2
14.73	2835.0	2745.6
14.74	2839.0	2747.0
14.75	2809.0	2748.4
14.76	2807.0	2749.8
14.77	2774.0	2751.2
14.78	2808.0	2752.6
14.79	2813.0	2754.0
14.8	2792.0	2755.5
14.81	2804.0	2756.9
14.82	2769.0	2758.3
14.83	2791.0	2759.7
14.84	2835.0	2761.1
14.85	2829.0	2762.5
14.86	2824.0	2763.9
14.87	2765.0	2765.3
14.88	2746.0	2766.7
14.89	2778.0	2768.1
14.9	2763.0	2769.5
14.91	2828.0	2770.9
14.92	2876.0	2772.3
14.93	2879.0	2773.7
14.94	2853.0	2775.1
14.95	2851.0	2776.5
14.96	2866.0	2777.9
14.97	2875.0	2779.3
14.98	2833.0	2780.7
14.99	2856.0	2782.1
15.0	2813.0	2783.5
15.01	2763.0	2784.9
15.02	2799.0	2786.3
15.03	2836.0	2787.7
15.04	2847.0	2789.1
15.05	2814.0	2790.5
15.06	2768.0	2791.9
15.07	2797.0	2793.3
15.08	2828.0	2794.6
15.09	2808.0	2796.0
15.1	2803.0	2797.4
15.11	2826.0	2798.8
15.12	2795.0	2800.2
15.13	2782.0	2801.6
15.14	2773.0	2802.9
15.15	2776.0	2804.3
15.16	2807.0	2805.7
15.17	2764.0	2807.1
15.18	2778.0	2808.4
15.19	2760.0	2809.8
15.2	2763.0	2811.2
15.21	2830.0	2812.6
15.22	2863.0	2813.9
15.23	2855.0	2815.3
15.24	2851.0	2816.7
15.25	2841.0	2818.0
15.26	2857.0	2819.4
15.27	2859.0	2820.7
15.28	2868.0	2822.1
15.29	2858.0	2823.5
15.3	2865.0	2824.8
15.31	2866.0	2826.2
15.32	2802.0	2827.5
15.33	2806.0	2828.9
15.34	2845.0	2830.2
15.35	2837.0	2831.6
15.36	2827.0	2832.9
15.37	2802.0	2834.2
15.38	2816.0	2835.6
15.39	2836.0	2836.9
15.4	2819.0	2838.3
15.41	2774.0	2839.6
15.42	2802.0	2840.9
15.43	2874.0	2842.2
15.44	2857.0	2843.6
15.45	2840.0	2844.9
15.46	2827.0	2846.2
15.47	2859.0	2847.5
15.48	2827.0	2848.9
15.49	2860.0	2850.2
15.5	2915.0	2851.5
15.51	2869.0	2852.8
15.52	2815.0	2854.1
15.53	2831.0	2855.4
15.54	2863.0	2856.7
15.55	2866.0	2858.0
15.56	2848.0	2859.3
15.57	2824.0	2860.6
15.58	2810.0	2861.9
15.59	2797.0	2863.2
15.6	2856.0	2864.5
15.61	2915.0	2865.8
15.62	2858.0	2867.1
15.63	2791.0	2868.3
15.64	2786.0	2869.6
15.65	2843.0	2870.9
15.66	2914.0	2872.2
15.67	2912.0	2873.4
15.68	2829.0	2874.7
15.69	2789.0	2876.0
15.7	2821.0	2877.2
15.71	2868.0	2878.5
15.72	2872.0	2879.8
15.73	2850.0	2881.0
15.74	2861.0	2882.3
15.75	2838.0	2883.5
15.76	2804.0	2884.7
15.77	2846.0	2886.0
15.78	2890.0	2887.2
15.79	2895.0	2888.5
15.8	2950.0	2889.7
15.81	2960.0	2890.9
15.82	2881.0	2892.1
15.83	2865.0	2893.4
15.84	2887.0	2894.6
15.85	2909.0	2895.8
15.86	2915.0	2897.0
15.87	2912.0	2898.2
15.88	2913.0	2899.4
15.89	2942.0	2900.6
15.9	2955.0	2901.8
15.91	2935.0	2903.0
15.92	2861.0	2904.2
15.93	2854.0	2905.4
15.94	2902.0	2906.6
15.95	2927.0	2907.8
15.96	2945.0	2908.9
15.97	2931.0	2910.1
15.98	2955.0	2911.3
15.99	2940.0	2912.5
16.0	2866.0	2913.6
16.01	2848.0	2914.8
16.02	2877.0	2915.9
16.03	2942.0	2917.1
16.04	2932.0	2918.2
16.05	2912.0	2919.4
16.06	2905.0	2920.5
16.07	2916.0	2921.7
16.08	2944.0	2922.8
16.09	2914.0	2923.9
16.1	2912.0	2925.0
16.11	2916.0	2926.2
16.12	2976.0	2927.3
16.13	3006.0	2928.4
16.14	3013.0	2929.5
16.15	2981.0	2930.6
16.16	2973.0	2931.7
16.17	3014.0	2932.8
16.18	2988.0	2933.9
16.19	2978.0	2935.0
16.2	2959.0	2936.1
16.21	2966.0	2937.1
16.22	2967.0	2938.2
16.23	2966.0	2939.3
16.24	2956.0	2940.4
16.25	2924.0	2941.4
16.26	2920.0	2942.5
16.27	2935.0	2943.5
16.28	2889.0	2944.6
16.29	2885.0	2945.6
16.3	2924.0	2946.7
16.31	2916.0	2947.7
16.32	2943.0	2948.7
16.33	2959.0	2949.7
16.34	2980.0	2950.8
16.35	2986.0	2951.8
16.36	2997.0	2952.8
16.37	3001.0	2953.8
16.38	3026.0	2954.8
16.39	3033.0	2955.8
16.4	2988.0	2956.8
16.41	2981.0	2957.8
16.42	3023.0	2958.8
16.43	3038.0	2959.8
16.44	2998.0	2960.7
16.45	2959.0	2961.7
16.46	2963.0	2962.7
16.47	2997.0	2963.6
16.48	3015.0	2964.6
16.49	2990.0	2965.5
16.5	2965.0	2966.5
16.51	2962.0	2967.4
16.52	2988.0	2968.4
16.53	3002.0	2969.3
16.54	3011.0	2970.2
16.55	3042.0	2971.1
16.56	3044.0	2972.1
16.57	3031.0	2973.0
16.58	3010.0	2973.9
16.59	3035.0	2974.8
16.6	3070.0	2975.7
16.61	3054.0	2976.6
16.62	3038.0	2977.5
16.63	3082.0	2978.4
16.64	3127.0	2979.3
16.65	3059.0	2980.1
16.66	2973.0	2981.0
16.67	3001.0	2981.9
16.68	3053.0	2982.7
16.69	3039.0	2983.6
16.7	2999.0	2984.5
16.71	3058.0	2985.3
16.72	3077.0	2986.2
16.73	3046.0	2987.0
16.74	3070.0	2987.8
16.75	3068.0	2988.7
16.76	3044.0	2989.5
16.77	3076.0	2990.3
16.78	3108.0	2991.1
16.79	3083.0	2992.0
16.8	3067.0	2992.8
16.81	3051.0	2993.6
16.82	2999.0	2994.4
16.83	3004.0	2995.2
16.84	3037.0	2996.0
16.85	3056.0	2996.8
16.86	3064.0	2997.5
16.87	3057.0	2998.3
16.88	3116.0	2999.1
16.89	3121.0	2999.9
16.9	3113.0	3000.6
16.91	3104.0	3001.4
16.92	3033.0	3002.1
16.93	3043.0	3002.9
16.94	3078.0	3003.6
16.95	3072.0	3004.4
16.96	3077.0	3005.1
16.97	3078.0	3005.8
16.98	3053.0	3006.6
16.99	3076.0	3007.3
17.0	3129.0	3008.0
17.01	3136.0	3008.7
17.02	3104.0	3009.4
17.03	3080.0	3010.2
17.04	3086.0	3010.9
17.05	3085.0	3011.6
17.06	3104.0	3012.2
17.07	3122.0	3012.9
17.08	3101.0	3013.6
17.09	3102.0	3014.3
17.1	3110.0	3015.0
17.11	3086.0	3015.6
17.12	3072.0	3016.3
17.13	3077.0	3017.0
17.14	3052.0	3017.6
17.15	3039.0	3018.3
17.16	3114.0	3018.9
17.17	3170.0	3019.6
17.18	3096.0	3020.2
17.19	3042.0	3020.8
17.2	3092.0	3021.5
17.21	3125.0	3022.1
17.22	3110.0	3022.7
17.23	3138.0	3023.3
17.24	3179.0	3024.0
17.25	3168.0	3024.6
17.26	3154.0	3025.2
17.27	3176.0	3025.8
17.28	3170.0	3026.4
17.29	3148.0	3027.0
17.3	3120.0	3027.5
17.31	3116.0	3028.1
17.32	3147.0	3028.7
17.33	3163.0	3029.3
17.34	3170.0	3029.8
17.35	3179.0	3030.4
17.36	3201.0	3031.0
17.37	3168.0	3031.5
17.38	3120.0	3032.1
17.39	3147.0	3032.6
17.4	3201.0	3033.1
17.41	3218.0	3033.7
17.42	3195.0	3034.2
17.43	3183.0	3034.7
17.44	3185.0	3035.3
17.45	3196.0	3035.8
17.46	3188.0	3036.3
17.47	3167.0	3036.8
17.48	3167.0	3037.3
17.49	3208.0	3037.8
17.5	3215.0	3038.3
17.51	3189.0	3038.8
17.52	3174.0	3039.3
17.53	3194.0	3039.8
17.54	3230.0	3040.3
17.55	3217.0	3040.7
17.56	3200.0	3041.2
17.57	3203.0	3041.7
17.58	3215.0	3042.1
17.59	3219.0	3042.6
17.6	3226.0	3043.1
17.61	3242.0	3043.5
17.62	3243.0	3043.9
17.63	3251.0	3044.4
17.64	3258.0	3044.8
17.65	3229.0	3045.3
17.66	3231.0	3045.7
17.67	3266.0	3046.1
17.68	3276.0	3046.5
17.69	3235.0	3046.9
17.7	3207.0	3047.3
17.71	3227.0	3047.8
17.72	3231.0	3048.2
17.73	3209.0	3048.6
17.74	3184.0	3048.9
17.75	3184.0	3049.3
17.76	3209.0	3049.7
17.77	3231.0	3050.1
17.78	3264.0	3050.5
17.79	3289.0	3050.8
17.8	3250.0	3051.2
17.81	3217.0	3051.6
17.82	3257.0	3051.9
17.83	3284.0	3052.3
17.84	3278.0	3052.6
17.85	3285.0	3053.0
17.86	3261.0	3053.3
17.87	3240.0	3053.6
17.88	3272.0	3054.0
17.89	3319.0	3054.3
17.9	3297.0	3054.6
17.91	3264.0	3054.9
17.92	3265.0	3055.3
17.93	3272.0	3055.6
17.94	3316.0	3055.9
17.95	3311.0	3056.2
17.96	3221.0	3056.5
17.97	3201.0	3056.8
17.98	3242.0	3057.1
17.99	3249.0	3057.3
18.0	3284.0	3057.6
18.01	3323.0	3057.9
18.02	3340.0	3058.2
18.03	3313.0	3058.4
18.04	3286.0	3058.7
18.05	3273.0	3059.0
18.06	3295.0	3059.2
18.07	3356.0	3059.5
18.08	3340.0	3059.7
18.09	3323.0	3059.9
18.1	3333.0	3060.2
18.11	3351.0	3060.4
18.12	3362.0	3060.6
18.13	3330.0	3060.9
18.14	3400.0	3061.1
18.15	3382.0	3061.3
18.16	3277.0	3061.5
18.17	3310.0	3061.7
18.18	3325.0	3061.9
18.19	3341.0	3062.1
18.2	3365.0	3062.3
18.21	3366.0	3062.5
18.22	3361.0	3062.7
18.23	3348.0	3062.9
18.24	3348.0	3063.0
18.25	3362.0	3063.2
18.26	3402.0	3063.4
18.27	3388.0	3063.6
18.28	3341.0	3063.7
18.29	3337.0	3063.9
18.3	3367.0	3064.0
18.31	3416.0	3064.2
18.32	3437.0	3064.3
18.33	3382.0	3064.5
18.34	3385.0	3064.6
18.35	3426.0	3064.7
18.36	3381.0	3064.8
18.37	3328.0	3065.0
18.38	3348.0	3065.1
18.39	3345.0	3065.2
18.4	3369.0	3065.3
18.41	3395.0	3065.4
18.42	3421.0	3065.5
18.43	3464.0	3065.6
18.44	3440.0	3065.7
18.45	3439.0	3065.8
18.46	3408.0	3065.9
18.47	3396.0	3065.9
18.48	3420.0	3066.0
18.49	3430.0	3066.1
18.5	3434.0	3066.2
18.51	3429.0	3066.2
18.52	3375.0	3066.3
18.53	3399.0	3066.3
18.54	3431.0	3066.4
18.55	3431.0	3066.4
18.56	3459.0	3066.5
18.57	3473.0	3066.5
18.58	3458.0	3066.5
18.59	3500.0	3066.6
18.6	3516.0	3066.6
18.61	3474.0	3066.6
18.62	3495.0	3066.6
18.63	3455.0	3066.7
18.64	3416.0	3066.7
18.65	3418.0	3066.7
18.66	3434.0	3066.7
18.67	3407.0	3066.7
18.68	3456.0	3066.7
18.69	3514.0	3066.6
18.7	3485.0	3066.6
18.71	3485.0	3066.6
18.72	3548.0	3066.6
18.73	3539.0	3066.5
18.74	3434.0	3066.5
18.75	3440.0	3066.5
18.76	3521.0	3066.4
18.77	3556.0	3066.4
18.78	3598.0	3066.3
18.79	3567.0	3066.3
18.8	3528.0	3066.2
18.81	3522.0	3066.2
18.82	3521.0	3066.1
18.83	3541.0	3066.0
18.84	3498.0	3066.0
18.85	3492.0	3065.9
18.86	3504.0	3065.8
18.87	3537.0	3065.7
18.88	3540.0	3065.6
18.89	3560.0	3065.5
18.9	3527.0	3065.4
18.91	3509.0	3065.3
18.92	3534.0	3065.2
18.93	3520.0	3065.1
18.94	3499.0	3065.0
18.95	3509.0	3064.9
18.96	3515.0	3064.7
18.97	3512.0	3064.6
18.98	3526.0	3064.5
18.99	3528.0	3064.3
19.0	3547.0	3064.2
19.01	3561.0	3064.1
19.02	3528.0	3063.9
19.03	3508.0	3063.7
19.04	3514.0	3063.6
19.05	3511.0	3063.4
19.06	3502.0	3063.3
19.07	3516.0	3063.1
19.08	3495.0	3062.9
19.09	3550.0	3062.7
19.1	3670.0	3062.6
19.11	3623.0	3062.4
19.12	3540.0	3062.2
19.13	3525.0	3062.0
19.14	3543.0	3061.8
19.15	3577.0	3061.6
19.16	3534.0	3061.4
19.17	3503.0	3061.2
19.18	3538.0	3061.0
19.19	3581.0	3060.7
19.2	3593.0	3060.5
19.21	3585.0	3060.3
19.22	3620.0	3060.1
19.23	3695.0	3059.8
19.24	3698.0	3059.6
19.25	3647.0	3059.3
19.26	3620.0	3059.1
19.27	3615.0	3058.8
19.28	3588.0	3058.6
19.29	3618.0	3058.3
19.3	3636.0	3058.1
19.31	3642.0	3057.8
19.32	3635.0	3057.5
19.33	3632.0	3057.3
19.34	3627.0	3057.0
19.35	3643.0	3056.7
19.36	3603.0	3056.4
19.37	3557.0	3056.1
19.38	3588.0	3055.8
19.39	3643.0	3055.5
19.4	3673.0	3055.2
19.41	3672.0	3054.9
19.42	3594.0	3054.6
19.43	3600.0	3054.3
19.44	3602.0	3054.0
19.45	3639.0	3053.6
19.46	3624.0	3053.3
19.47	3664.0	3053.0
19.48	3676.0	3052.6
19.49	3672.0	3052.3
19.5	3692.0	3052.0
19.51	3660.0	3051.6
19.52	3693.0	3051.3
19.53	3685.0	3050.9
19.54	3683.0	3050.5
19.55	3695.0	3050.2
19.56	3681.0	3049.8
19.57	3719.0	3049.4
19.58	3680.0	3049.1
19.59	3684.0	3048.7
19.6	3696.0	3048.3
19.61	3622.0	3047.9
19.62	3588.0	3047.5
19.63	3664.0	3047.1
19.64	3714.0	3046.7
19.65	3683.0	3046.3
19.66	3642.0	3045.9
19.67	3642.0	3045.5
19.68	3718.0	3045.1
19.69	3708.0	3044.7
19.7	3688.0	3044.2
19.71	3611.0	3043.8
19.72	3573.0	3043.4
19.73	3615.0	3043.0
19.74	3651.0	3042.5
19.75	3662.0	3042.1
19.76	3657.0	3041.6
19.77	3666.0	3041.2
19.78	3668.0	3040.7
19.79	3697.0	3040.3
19.8	3731.0	3039.8
19.81	3707.0	3039.3
19.82	3690.0	3038.9
19.83	3733.0	3038.4
19.84	3725.0	3037.9
19.85	3661.0	3037.4
19.86	3680.0	3036.9
19.87	3683.0	3036.4
19.88	3675.0	3035.9
19.89	3651.0	3035.4
19.9	3638.0	3034.9
19.91	3673.0	3034.4
19.92	3724.0	3033.9
19.93	3714.0	3033.4
19.94	3687.0	3032.9
19.95	3704.0	3032.4
19.96	3657.0	3031.8
19.97	3670.0	3031.3
19.98	3702.0	3030.8
19.99	3682.0	3030.2
20.0	3661.0	3029.7
20.01	3711.0	3029.2
20.02	3710.0	3028.6
20.03	3696.0	3028.1
20.04	3706.0	3027.5
20.05	3705.0	3026.9
20.06	3648.0	3026.4
20.07	3661.0	3025.8
20.08	3721.0	3025.2
20.09	3695.0	3024.7
20.1	3729.0	3024.1
20.11	3719.0	3023.5
20.12	3724.0	3022.9
20.13	3743.0	3022.3
20.14	3716.0	3021.7
20.15	3687.0	3021.1
20.16	3664.0	3020.5
20.17	3633.0	3019.9
20.18	3666.0	3019.3
20.19	3694.0	3018.7
20.2	3715.0	3018.1
20.21	3630.0	3017.4
20.22	3636.0	3016.8
20.23	3686.0	3016.2
20.24	3666.0	3015.5
20.25	3651.0	3014.9
20.26	3627.0	3014.3
20.27	3627.0	3013.6
20.28	3602.0	3013.0
20.29	3598.0	3012.3
20.3	3687.0	3011.6
20.31	3676.0	3011.0
20.32	3659.0	3010.3
20.33	3643.0	3009.6
20.34	3581.0	3009.0
20.35	3579.0	3008.3
20.36	3612.0	3007.6
20.37	3672.0	3006.9
20.38	3671.0	3006.2
20.39	3664.0	3005.5
20.4	3662.0	3004.8
20.41	3629.0	3004.1
20.42	3594.0	3003.4
20.43	3604.0	3002.7
20.44	3619.0	3002.0
20.45	3649.0	3001.3
20.46	3755.0	3000.6
20.47	3681.0	2999.9
20.48	3628.0	2999.1
20.49	3645.0	2998.4
20.5	3692.0	2997.7
20.51	3660.0	2996.9
20.52	3579.0	2996.2
20.53	3547.0	2995.4
20.54	3594.0	2994.7
20.55	3588.0	2993.9
20.56	3576.0	2993.2
20.57	3582.0	2992.4
20.58	3564.0	2991.7
20.59	3604.0	2990.9
20.6	3626.0	2990.1
20.61	3586.0	2989.3
20.62	3576.0	2988.6
20.63	3570.0	2987.8
20.64	3551.0	2987.0
20.65	3554.0	2986.2
20.66	3537.0	2985.4
20.67	3593.0	2984.6
20.68	3651.0	2983.8
20.69	3634.0	2983.0
20.7	3568.0	2982.2
20.71	3553.0	2981.4
20.72	3589.0	2980.5
20.73	3590.0	2979.7
20.74	3571.0	2978.9
20.75	3512.0	2978.1
20.76	3526.0	2977.2
20.77	3517.0	2976.4
20.78	3521.0	2975.6
20.79	3557.0	2974.7
20.8	3580.0	2973.9
20.81	3530.0	2973.0
20.82	3498.0	2972.2
20.83	3549.0	2971.3
20.84	3521.0	2970.4
20.85	3488.0	2969.6
20.86	3502.0	2968.7
20.87	3534.0	2967.8
20.88	3535.0	2966.9
20.89	3559.0	2966.1
20.9	3543.0	2965.2
20.91	3559.0	2964.3
20.92	3526.0	2963.4
20.93	3446.0	2962.5
20.94	3495.0	2961.6
20.95	3505.0	2960.7
20.96	3500.0	2959.8
20.97	3453.0	2958.9
20.98	3457.0	2957.9
20.99	3506.0	2957.0
21.0	3484.0	2956.1
21.01	3469.0	2955.2
21.02	3509.0	2954.2
21.03	3524.0	2953.3
21.04	3475.0	2952.4
21.05	3455.0	2951.4
21.06	3496.0	2950.5
21.07	3542.0	2949.5
21.08	3537.0	2948.6
21.09	3526.0	2947.6
21.1	3419.0	2946.7
21.11	3521.0	2945.7
21.12	3468.0	2944.7
21.13	3471.0	2943.8
21.14	3534.0	2942.8
21.15	3543.0	2941.8
21.16	3473.0	2940.8
21.17	3486.0	2939.8
21.18	3514.0	2938.9
21.19	3500.0	2937.9
21.2	3466.0	2936.9
21.21	3435.0	2935.9
21.22	3427.0	2934.9
21.23	3406.0	2933.9
21.24	3442.0	2932.8
21.25	3443.0	2931.8
21.26	3426.0	2930.8
21.27	3454.0	2929.8
21.28	3448.0	2928.8
21.29	3546.0	2927.7
21.3	3487.0	2926.7
21.31	3499.0	2925.7
21.32	3493.0	2924.6
21.33	3558.0	2923.6
21.34	3553.0	2922.5
21.35	3507.0	2921.5
21.36	3430.0	2920.4
21.37	3477.0	2919.4
21.38	3479.0	2918.3
21.39	3425.0	2917.2
21.4	3458.0	2916.2
21.41	3538.0	2915.1
21.42	3523.0	2914.0
21.43	3512.0	2912.9
21.44	3447.0	2911.8
21.45	3451.0	2910.7
21.46	3484.0	2909.7
21.47	3395.0	2908.6
21.48	3411.0	2907.5
21.49	3435.0	2906.4
21.5	3433.0	2905.3
21.51	3436.0	2904.1
21.52	3492.0	2903.0
21.53	3492.0	2901.9
21.54	3475.0	2900.8
21.55	3505.0	2899.7
21.56	3439.0	2898.5
21.57	3531.0	2897.4
21.58	3439.0	2896.3
21.59	3519.0	2895.1
21.6	3514.0	2894.0
21.61	3501.0	2892.8
21.62	3462.0	2891.7
21.63	3427.0	2890.5
21.64	3439.0	2889.4
21.65	3445.0	2888.2
21.66	3452.0	2887.1
21.67	3460.0	2885.9
21.68	3489.0	2884.7
21.69	3515.0	2883.5
21.7	3435.0	2882.4
21.71	3429.0	2881.2
21.72	3431.0	2880.0
21.73	3447.0	2878.8
21.74	3465.0	2877.6
21.75	3506.0	2876.4
21.76	3454.0	2875.2
21.77	3407.0	2874.0
21.78	3372.0	2872.8
21.79	3443.0	2871.6
21.8	3448.0	2870.4
21.81	3432.0	2869.2
21.82	3431.0	2867.9
21.83	3449.0	2866.7
21.84	3426.0	2865.5
21.85	3375.0	2864.3
21.86	3407.0	2863.0
21.87	3385.0	2861.8
21.88	3411.0	2860.5
21.89	3457.0	2859.3
21.9	3497.0	2858.0
21.91	3485.0	2856.8
21.92	3473.0	2855.5
21.93	3372.0	2854.3
21.94	3398.0	2853.0
21.95	3384.0	2851.7
21.96	3486.0	2850.5
21.97	3433.0	2849.2
21.98	3488.0	2847.9
21.99	3380.0	2846.6
22.0	3408.0	2845.4
22.01	3398.0	2844.1
22.02	3404.0	2842.8
22.03	3350.0	2841.5
22.04	3439.0	2840.2
22.05	3453.0	2838.9
22.06	3516.0	2837.6
22.07	3505.0	2836.3
22.08	3419.0	2834.9
22.09	3384.0	2833.6
22.1	3399.0	2832.3
22.11	3404.0	2831.0
22.12	3434.0	2829.7
22.13	3393.0	2828.3
22.14	3381.0	2827.0
22.15	3390.0	2825.7
22.16	3376.0	2824.3
22.17	3473.0	2823.0
22.18	3420.0	2821.6
22.19	3533.0	2820.3
22.2	3386.0	2818.9
22.21	3410.0	2817.6
22.22	3355.0	2816.2
22.23	3442.0	2814.8
22.24	3441.0	2813.5
22.25	3407.0	2812.1
22.26	3342.0	2810.7
22.27	3342.0	2809.3
22.28	3335.0	2808.0
22.29	3303.0	2806.6
22.3	3365.0	2805.2
22.31	3413.0	2803.8
22.32	3317.0	2802.4
22.33	3301.0	2801.0
22.34	3307.0	2799.6
22.35	3379.0	2798.2
22.36	3326.0	2796.8
22.37	3349.0	2795.4
22.38	3394.0	2793.9
22.39	3401.0	2792.5
22.4	3320.0	2791.1
22.41	3347.0	2789.7
22.42	3341.0	2788.2
22.43	3326.0	2786.8
22.44	3273.0	2785.4
22.45	3285.0	2783.9
22.46	3299.0	2782.5
22.47	3293.0	2781.0
22.48	3297.0	2779.6
22.49	3311.0	2778.1
22.5	3324.0	2776.7
22.51	3298.0	2775.2
22.52	3293.0	2773.7
22.53	3269.0	2772.3
22.54	3298.0	2770.8
22.55	3271.0	2769.3
22.56	3241.0	2767.8
22.57	3298.0	2766.4
22.58	3270.0	2764.9
22.59	3267.0	2763.4
22.6	3351.0	2761.9
22.61	3329.0	2760.4
22.62	3327.0	2758.9
22.63	3298.0	2757.4
22.64	3281.0	2755.9
22.65	3222.0	2754.4
22.66	3177.0	2752.9
22.67	3235.0	2751.3
22.68	3283.0	2749.8
22.69	3267.0	2748.3
22.7	3245.0	2746.8
22.71	3260.0	2745.2
22.72	3243.0	2743.7
22.73	3159.0	2742.2
22.74	3172.0	2740.6
22.75	3159.0	2739.1
22.76	3088.0	2737.5
22.77	3128.0	2736.0
22.78	3203.0	2734.4
22.79	3139.0	2732.9
22.8	3114.0	2731.3
22.81	3122.0	2729.8
22.82	3121.0	2728.2
22.83	3174.0	2726.6
22.84	3164.0	2725.0
22.85	3140.0	2723.5
22.86	3161.0	2721.9
22.87	3150.0	2720.3
22.88	3094.0	2718.7
22.89	3116.0	2717.1
22.9	3156.0	2715.5
22.91	3146.0	2713.9
22.92	3128.0	2712.3
22.93	3113.0	2710.7
22.94	3101.0	2709.1
22.95	3120.0	2707.5
22.96	3111.0	2705.9
22.97	3139.0	2704.3
22.98	3130.0	2702.7
22.99	3055.0	2701.0
23.0	3049.0	2699.4
23.01	3018.0	2697.8
23.02	3057.0	2696.1
23.03	3098.0	2694.5
23.04	3013.0	2692.9
23.05	3020.0	2691.2
23.06	2998.0	2689.6
23.07	2928.0	2687.9
23.08	2961.0	2686.3
23.09	3007.0	2684.6
23.1	3006.0	2683.0
23.11	3015.0	2681.3
23.12	3010.0	2679.6
23.13	2998.0	2678.0
23.14	2930.0	2676.3
23.15	2950.0	2674.6
23.16	2988.0	2672.9
23.17	2946.0	2671.2
23.18	2914.0	2669.6
23.19	2951.0	2667.9
23.2	2962.0	2666.2
23.21	2938.0	2664.5
23.22	3004.0	2662.8
23.23	2921.0	2661.1
23.24	2856.0	2659.4
23.25	2912.0	2657.7
23.26	2924.0	2655.9
23.27	2799.0	2654.2
23.28	2866.0	2652.5
23.29	2887.0	2650.8
23.3	2852.0	2649.1
23.31	2820.0	2647.3
23.32	2802.0	2645.6
23.33	2845.0	2643.9
23.34	2893.0	2642.1
23.35	2852.0	2640.4
23.36	2810.0	2638.6
23.37	2831.0	2636.9
23.38	2889.0	2635.1
23.39	2834.0	2633.4
23.4	2757.0	2631.6
23.41	2776.0	2629.9
23.42	2839.0	2628.1
23.43	2836.0	2626.3
23.44	2800.0	2624.6
23.45	2764.0	2622.8
23.46	2722.0	2621.0
23.47	2713.0	2619.2
23.48	2745.0	2617.4
23.49	2781.0	2615.6
23.5	2784.0	2613.9
23.51	2730.0	2612.1
23.52	2719.0	2610.3
23.53	2723.0	2608.5
23.54	2725.0	2606.7
23.55	2700.0	2604.9
23.56	2703.0	2603.0
23.57	2685.0	2601.2
23.58	2715.0	2599.4
23.59	2717.0	2597.6
23.6	2662.0	2595.8
23.61	2634.0	2593.9
23.62	2692.0	2592.1
23.63	2698.0	2590.3
23.64	2726.0	2588.4
23.65	2778.0	2586.6
23.66	2694.0	2584.8
23.67	2650.0	2582.9
23.68	2623.0	2581.1
23.69	2652.0	2579.2
23.7	2661.0	2577.4
23.71	2643.0	2575.5
23.72	2652.0	2573.6
23.73	2700.0	2571.8
23.74	2739.0	2569.9
23.75	2691.0	2568.0
23.76	2635.0	2566.2
23.77	2631.0	2564.3
23.78	2624.0	2562.4
23.79	2654.0	2560.5
23.8	2595.0	2558.6
23.81	2640.0	2556.7
23.82	2594.0	2554.9
23.83	2576.0	2553.0
23.84	2599.0	2551.1
23.85	2625.0	2549.2
23.86	2590.0	2547.2
23.87	2595.0	2545.3
23.88	2583.0	2543.4
23.89	2572.0	2541.5
23.9	2590.0	2539.6
23.91	2627.0	2537.7
23.92	2579.0	2535.7
23.93	2580.0	2533.8
23.94	2547.0	2531.9
23.95	2562.0	2530.0
23.96	2598.0	2528.0
23.97	2583.0	2526.1
23.98	2593.0	2524.1
23.99	2601.0	2522.2
24.0	2535.0	2520.2
24.01	2519.0	2518.3
24.02	2538.0	2516.3
24.03	2526.0	2514.4
24.04	2539.0	2512.4
24.05	2561.0	2510.4
24.06	2510.0	2508.5
24.07	2453.0	2506.5
24.08	2493.0	2504.5
24.09	2481.0	2502.5
24.1	2551.0	2500.6
24.11	2534.0	2498.6
24.12	2503.0	2496.6
24.13	2506.0	2494.6
24.14	2485.0	2492.6
24.15	2465.0	2490.6
24.16	2527.0	2488.6
24.17	2533.0	2486.6
24.18	2522.0	2484.6
24.19	2530.0	2482.6
24.2	2553.0	2480.6
24.21	2479.0	2478.6
24.22	2488.0	2476.6
24.23	2438.0	2474.5
24.24	2444.0	2472.5
24.25	2498.0	2470.5
24.26	2501.0	2468.4
24.27	2483.0	2466.4
24.28	2429.0	2464.4
24.29	2482.0	2462.3
24.3	2481.0	2460.3
24.31	2491.0	2458.2
24.32	2457.0	2456.2
24.33	2449.0	2454.1
24.34	2482.0	2452.1
24.35	2508.0	2450.0
24.36	2497.0	2448.0
24.37	2506.0	2445.9
24.38	2532.0	2443.8
24.39	2508.0	2441.8
24.4	2469.0	2439.7
24.41	2467.0	2437.6
24.42	2503.0	2435.5
24.43	2489.0	2433.5
24.44	2473.0	2431.4
24.45	2460.0	2429.3
24.46	2468.0	2427.2
24.47	2448.0	2425.1
24.48	2453.0	2423.0
24.49	2505.0	2420.9
24.5	2517.0	2418.8
24.51	2464.0	2416.7
24.52	2480.0	2414.6
24.53	2485.0	2412.5
24.54	2501.0	2410.4
24.55	2469.0	2408.3
24.56	2495.0	2406.2
24.57	2493.0	2404.0
24.58	2458.0	2401.9
24.59	2501.0	2399.8
24.6	2518.0	2397.7
24.61	2504.0	2395.5
24.62	2494.0	2393.4
24.63	2494.0	2391.3
24.64	2480.0	2389.1
24.65	2499.0	2387.0
24.66	2497.0	2384.9
24.67	2496.0	2382.7
24.68	2546.0	2380.6
24.69	2540.0	2378.4
24.7	2469.0	2376.3
24.71	2492.0	2374.1
24.72	2550.0	2372.0
24.73	2555.0	2369.8
24.74	2518.0	2367.6
24.75	2509.0	2365.5
24.76	2496.0	2363.3
24.77	2474.0	2361.1
24.78	2501.0	2359.0
24.79	2551.0	2356.8
24.8	2572.0	2354.6
24.81	2557.0	2352.5
24.82	2569.0	2350.3
24.83	2550.0	2348.1
24.84	2564.0	2345.9
24.85	2566.0	2343.7
24.86	2565.0	2341.5
24.87	2560.0	2339.4
24.88	2584.0	2337.2
24.89	2587.0	2335.0
24.9	2564.0	2332.8
24.91	2583.0	2330.6
24.92	2592.0	2328.4
24.93	2591.0	2326.2
24.94	2630.0	2324.0
24.95	2650.0	2321.8
24.96	2661.0	2319.6
24.97	2601.0	2317.4
24.98	2651.0	2315.1
24.99	2719.0	2312.9
25.0	2633.0	2310.7
25.01	2602.0	2308.5
25.02	2629.0	2306.3
25.03	2620.0	2304.1
25.04	2651.0	2301.8
25.05	2682.0	2299.6
25.06	2675.0	2297.4
25.07	2662.0	2295.2
25.08	2725.0	2292.9
25.09	2783.0	2290.7
25.1	2751.0	2288.5
25.11	2693.0	2286.2
25.12	2703.0	2284.0
25.13	2752.0	2281.8
25.14	2760.0	2279.5
25.15	2763.0	2277.3
25.16	2764.0	2275.0
25.17	2804.0	2272.8
25.18	2822.0	2270.6
25.19	2823.0	2268.3
25.2	2907.0	2266.1
25.21	2934.0	2263.8
25.22	2917.0	2261.6
25.23	2925.0	2259.3
25.24	2983.0	2257.1
25.25	3023.0	2254.8
25.26	3024.0	2252.5
25.27	3037.0	2250.3
25.28	3027.0	2248.0
25.29	3021.0	2245.8
25.3	3044.0	2243.5
25.31	3115.0	2241.2
25.32	3179.0	2239.0
25.33	3231.0	2236.7
25.34	3209.0	2234.4
25.35	3183.0	2232.2
25.36	3219.0	2229.9
25.37	3228.0	2227.6
25.38	3244.0	2225.4
25.39	3286.0	2223.1
25.4	3378.0	2220.8
25.41	3406.0	2218.5
25.42	3442.0	2216.2
25.43	3534.0	2214.0
25.44	3526.0	2211.7
25.45	3561.0	2209.4
25.46	3628.0	2207.1
25.47	3722.0	2204.8
25.48	3787.0	2202.6
25.49	3824.0	2200.3
25.5	3856.0	2198.0
25.51	3926.0	2195.7
25.52	4006.0	2193.4
25.53	4044.0	2191.1
25.54	4126.0	2188.8
25.55	4234.0	2186.5
25.56	4274.0	2184.3
25.57	4348.0	2182.0
25.58	4453.0	2179.7
25.59	4547.0	2177.4
25.6	4579.0	2175.1
25.61	4657.0	2172.8
25.62	4800.0	2170.5
25.63	4940.0	2168.2
25.64	4970.0	2165.9
25.65	5087.0	2163.6
25.66	5255.0	2161.3
25.67	5285.0	2159.0
25.68	5302.0	2156.7
25.69	5422.0	2154.4
25.7	5522.0	2152.1
25.71	5618.0	2149.8
25.72	5745.0	2147.5
25.73	5782.0	2145.2
25.74	5859.0	2142.9
25.75	5926.0	2140.6
25.76	5961.0	2138.3
25.77	6036.0	2135.9
25.78	6164.0	2133.6
25.79	6230.0	2131.3
25.8	6314.0	2129.0
25.81	6422.0	2126.7
25.82	6423.0	2124.4
25.83	6381.0	2122.1
25.84	6435.0	2119.8
25.85	6445.0	2117.5
25.86	6493.0	2115.2
25.87	6446.0	2112.9
25.88	6382.0	2110.5
25.89	6344.0	2108.2
25.9	6315.0	2105.9
25.91	6309.0	2103.6
25.92	6281.0	2101.3
25.93	6198.0	2099.0
25.94	6123.0	2096.7
25.95	6100.0	2094.3
25.96	6065.0	2092.0
25.97	5918.0	2089.7
25.98	5812.0	2087.4
25.99	5777.0	2085.1
26.0	5716.0	2082.8
26.01	5621.0	2080.5
26.02	5502.0	2078.1
26.03	5397.0	2075.8
26.04	5244.0	2073.5
26.05	5119.0	2071.2
26.06	5048.0	2068.9
26.07	4965.0	2066.6
26.08	4796.0	2064.2
26.09	4653.0	2061.9
26.1	4552.0	2059.6
26.11	4463.0	2057.3
26.12	4383.0	2055.0
26.13	4294.0	2052.7
26.14	4219.0	2050.4
26.15	4150.0	2048.0
26.16	4125.0	2045.7
26.17	4047.0	2043.4
26.18	3942.0	2041.1
26.19	3855.0	2038.8
26.2	3708.0	2036.5
26.21	3608.0	2034.1
26.22	3550.0	2031.8
26.23	3489.0	2029.5
26.24	3441.0	2027.2
26.25	3384.0	2024.9
26.26	3363.0	2022.6
26.27	3297.0	2020.3
26.28	3191.0	2018.0
26.29	3150.0	2015.6
26.3	3125.0	2013.3
26.31	3072.0	2011.0
26.32	3045.0	2008.7
26.33	3031.0	2006.4
26.34	2976.0	2004.1
26.35	2915.0	2001.8
26.36	2877.0	1999.5
26.37	2830.0	1997.2
26.38	2755.0	1994.8
26.39	2735.0	1992.5
26.4	2736.0	1990.2
26.41	2663.0	1987.9
26.42	2627.0	1985.6
26.43	2670.0	1983.3
26.44	2634.0	1981.0
26.45	2559.0	1978.7
26.46	2542.0	1976.4
26.47	2539.0	1974.1
26.48	2529.0	1971.8
26.49	2517.0	1969.5
26.5	2501.0	1967.2
26.51	2453.0	1964.9
26.52	2437.0	1962.6
26.53	2446.0	1960.3
26.54	2417.0	1958.0
26.55	2378.0	1955.7
26.56	2389.0	1953.4
26.57	2385.0	1951.1
26.58	2335.0	1948.8
26.59	2316.0	1946.5
26.6	2340.0	1944.2
26.61	2336.0	1941.9
26.62	2287.0	1939.6
26.63	2283.0	1937.3
26.64	2302.0	1935.1
26.65	2270.0	1932.8
26.66	2253.0	1930.5
26.67	2254.0	1928.2
26.68	2251.0	1925.9
26.69	2231.0	1923.6
26.7	2201.0	1921.3
26.71	2178.0	1919.0
26.72	2189.0	1916.8
26.73	2177.0	1914.5
26.74	2155.0	1912.2
26.75	2151.0	1909.9
26.76	2135.0	1907.6
26.77	2124.0	1905.4
26.78	2122.0	1903.1
26.79	2113.0	1900.8
26.8	2093.0	1898.5
26.81	2066.0	1896.3
26.82	2066.0	1894.0
26.83	2098.0	1891.7
26.84	2105.0	1889.5
26.85	2088.0	1887.2
26.86	2066.0	1884.9
26.87	2059.0	1882.7
26.88	2067.0	1880.4
26.89	2048.0	1878.1
26.9	2006.0	1875.9
26.91	2012.0	1873.6
26.92	2048.0	1871.4
26.93	2039.0	1869.1
26.94	2012.0	1866.9
26.95	2011.0	1864.6
26.96	1988.0	1862.4
26.97	1957.0	1860.1
26.98	1958.0	1857.9
26.99	1982.0	1855.6
27.0	1999.0	1853.4
27.01	1988.0	1851.1
27.02	1982.0	1848.9
27.03	1975.0	1846.6
27.04	1975.0	1844.4
27.05	1955.0	1842.2
27.06	1935.0	1839.9
27.07	1950.0	1837.7
27.08	1956.0	1835.5
27.09	1923.0	1833.2
27.1	1944.0	1831.0
27.11	1954.0	1828.8
27.12	1927.0	1826.5
27.13	1909.0	1824.3
27.14	1866.0	1822.1
27.15	1885.0	1819.9
27.16	1918.0	1817.7
27.17	1888.0	1815.4
27.18	1856.0	1813.2
27.19	1867.0	1811.0
27.2	1859.0	1808.8
27.21	1815.0	1806.6
27.22	1821.0	1804.4
27.23	1890.0	1802.2
27.24	1911.0	1800.0
27.25	1886.0	1797.8
27.26	1873.0	1795.6
27.27	1857.0	1793.4
27.28	1851.0	1791.2
27.29	1833.0	1789.0
27.3	1823.0	1786.8
27.31	1829.0	1784.6
27.32	1830.0	1782.4
27.33	1824.0	1780.2
27.34	1817.0	1778.1
27.35	1830.0	1775.9
27.36	1825.0	1773.7
27.37	1838.0	1771.5
27.38	1859.0	1769.4
27.39	1823.0	1767.2
27.4	1808.0	1765.0
27.41	1827.0	1762.8
27.42	1815.0	1760.7
27.43	1820.0	1758.5
27.44	1814.0	1756.4
27.45	1798.0	1754.2
27.46	1813.0	1752.0
27.47	1823.0	1749.9
27.48	1818.0	1747.7
27.49	1795.0	1745.6
27.5	1818.0	1743.4
27.51	1836.0	1741.3
27.52	1800.0	1739.1
27.53	1779.0	1737.0
27.54	1776.0	1734.9
27.55	1802.0	1732.7
27.56	1817.0	1730.6
27.57	1799.0	1728.5
27.58	1779.0	1726.3
27.59	1789.0	1724.2
27.6	1775.0	1722.1
27.61	1756.0	1720.0
27.62	1761.0	1717.9
27.63	1748.0	1715.8
27.64	1748.0	1713.6
27.65	1735.0	1711.5
27.66	1714.0	1709.4
27.67	1725.0	1707.3
27.68	1787.0	1705.2
27.69	1797.0	1703.1
27.7	1759.0	1701.0
27.71	1759.0	1698.9
27.72	1766.0	1696.8
27.73	1760.0	1694.8
27.74	1774.0	1692.7
27.75	1774.0	1690.6
27.76	1760.0	1688.5
27.77	1766.0	1686.4
27.78	1774.0	1684.4
27.79	1757.0	1682.3
27.8	1749.0	1680.2
27.81	1754.0	1678.2
27.82	1762.0	1676.1
27.83	1783.0	1674.0
27.84	1785.0	1672.0
27.85	1797.0	1669.9
27.86	1790.0	1667.9
27.87	1775.0	1665.8
27.88	1789.0	1663.8
27.89	1813.0	1661.8
27.9	1823.0	1659.7
27.91	1796.0	1657.7
27.92	1792.0	1655.7
27.93	1783.0	1653.6
27.94	1742.0	1651.6
27.95	1755.0	1649.6
27.96	1787.0	1647.6
27.97	1753.0	1645.5
27.98	1743.0	1643.5
27.99	1771.0	1641.5
28.0	1772.0	1639.5
28.01	1750.0	1637.5
28.02	1752.0	1635.5
28.03	1750.0	1633.5
28.04	1741.0	1631.5
28.05	1740.0	1629.5
28.06	1734.0	1627.6
28.07	1747.0	1625.6
28.08	1747.0	1623.6
28.09	1718.0	1621.6
28.1	1738.0	1619.6
28.11	1744.0	1617.7
28.12	1745.0	1615.7
28.13	1720.0	1613.7
28.14	1711.0	1611.8
28.15	1734.0	1609.8
28.16	1738.0	1607.9
28.17	1719.0	1605.9
28.18	1688.0	1604.0
28.19	1689.0	1602.0
28.2	1722.0	1600.1
28.21	1714.0	1598.2
28.22	1696.0	1596.2
28.23	1677.0	1594.3
28.24	1687.0	1592.4
28.25	1682.0	1590.5
28.26	1675.0	1588.6
28.27	1678.0	1586.7
28.28	1657.0	1584.7
28.29	1627.0	1582.8
28.3	1647.0	1580.9
28.31	1656.0	1579.0
28.32	1677.0	1577.1
28.33	1653.0	1575.3
28.34	1624.0	1573.4
28.35	1614.0	1571.5
28.36	1603.0	1569.6
28.37	1607.0	1567.7
28.38	1619.0	1565.9
28.39	1629.0	1564.0
28.4	1618.0	1562.1
28.41	1631.0	1560.3
28.42	1644.0	1558.4
28.43	1633.0	1556.6
28.44	1627.0	1554.7
28.45	1608.0	1552.9
28.46	1566.0	1551.1
28.47	1587.0	1549.2
28.48	1655.0	1547.4
28.49	1681.0	1545.6
28.5	1649.0	1543.7
28.51	1600.0	1541.9
28.52	1574.0	1540.1
28.53	1578.0	1538.3
28.54	1578.0	1536.5
28.55	1563.0	1534.7
28.56	1560.0	1532.9
28.57	1585.0	1531.1
28.58	1588.0	1529.3
28.59	1593.0	1527.5
28.6	1559.0	1525.8
28.61	1537.0	1524.0
28.62	1588.0	1522.2
28.63	1618.0	1520.4
28.64	1614.0	1518.7
28.65	1587.0	1516.9
28.66	1557.0	1515.2
28.67	1540.0	1513.4
28.68	1554.0	1511.7
28.69	1574.0	1509.9
28.7	1577.0	1508.2
28.71	1551.0	1506.5
28.72	1558.0	1504.7
28.73	1556.0	1503.0
28.74	1532.0	1501.3
28.75	1502.0	1499.6
28.76	1496.0	1497.9
28.77	1526.0	1496.2
28.78	1533.0	1494.5
28.79	1545.0	1492.8
28.8	1540.0	1491.1
28.81	1521.0	1489.4
28.82	1499.0	1487.7
28.83	1502.0	1486.0
28.84	1472.0	1484.4
28.85	1479.0	1482.7
28.86	1487.0	1481.0
28.87	1487.0	1479.4
28.88	1475.0	1477.7
28.89	1484.0	1476.1
28.9	1502.0	1474.4
28.91	1505.0	1472.8
28.92	1518.0	1471.1
28.93	1528.0	1469.5
28.94	1509.0	1467.9
28.95	1475.0	1466.3
28.96	1485.0	1464.6
28.97	1486.0	1463.0
28.98	1482.0	1461.4
28.99	1501.0	1459.8
29.0	1508.0	1458.2
29.01	1495.0	1456.6
29.02	1452.0	1455.1
29.03	1468.0	1453.5
29.04	1465.0	1451.9
29.05	1453.0	1450.3
29.06	1451.0	1448.8
29.07	1458.0	1447.2
29.08	1455.0	1445.7
29.09	1490.0	1444.1
29.1	1497.0	1442.6
29.11	1484.0	1441.0
29.12	1446.0	1439.5
29.13	1450.0	1438.0
29.14	1459.0	1436.4
29.15	1470.0	1434.9
29.16	1448.0	1433.4
29.17	1469.0	1431.9
29.18	1481.0	1430.4
29.19	1501.0	1428.9
29.2	1496.0	1427.4
29.21	1472.0	1425.9
29.22	1508.0	1424.4
29.23	1509.0	1422.9
29.24	1455.0	1421.5
29.25	1414.0	1420.0
29.26	1446.0	1418.5
29.27	1438.0	1417.1
29.28	1437.0	1415.6
29.29	1415.0	1414.2
29.3	1385.0	1412.7
29.31	1411.0	1411.3
29.32	1451.0	1409.9
29.33	1474.0	1408.5
29.34	1459.0	1407.0
29.35	1415.0	1405.6
29.36	1400.0	1404.2
29.37	1436.0	1402.8
29.38	1444.0	1401.4
29.39	1444.0	1400.0
29.4	1412.0	1398.7
29.41	1418.0	1397.3
29.42	1461.0	1395.9
29.43	1478.0	1394.5
29.44	1460.0	1393.2
29.45	1478.0	1391.8
29.46	1439.0	1390.5
29.47	1448.0	1389.1
29.48	1435.0	1387.8
29.49	1436.0	1386.4
29.5	1443.0	1385.1
29.51	1441.0	1383.8
29.52	1421.0	1382.4
29.53	1442.0	1381.1
29.54	1484.0	1379.8
29.55	1475.0	1378.5
29.56	1428.0	1377.2
29.57	1438.0	1375.9
29.58	1385.0	1374.6
29.59	1398.0	1373.3
29.6	1419.0	1372.0
29.61	1367.0	1370.8
29.62	1356.0	1369.5
29.63	1411.0	1368.2
29.64	1399.0	1367.0
29.65	1365.0	1365.7
29.66	1376.0	1364.5
29.67	1395.0	1363.2
29.68	1376.0	1362.0
29.69	1370.0	1360.7
29.7	1399.0	1359.5
29.71	1417.0	1358.3
29.72	1408.0	1357.1
29.73	1407.0	1355.8
29.74	1417.0	1354.6
29.75	1427.0	1353.4
29.76	1396.0	1352.2
29.77	1383.0	1351.0
29.78	1342.0	1349.8
29.79	1314.0	1348.6
29.8	1331.0	1347.5
29.81	1353.0	1346.3
29.82	1355.0	1345.1
29.83	1336.0	1343.9
29.84	1358.0	1342.8
29.85	1378.0	1341.6
29.86	1337.0	1340.5
29.87	1363.0	1339.3
29.88	1391.0	1338.2
29.89	1352.0	1337.0
29.9	1340.0	1335.9
29.91	1384.0	1334.7
29.92	1421.0	1333.6
29.93	1407.0	1332.5
29.94	1345.0	1331.4
29.95	1309.0	1330.3
29.96	1324.0	1329.2
29.97	1335.0	1328.1
29.98	1369.0	1327.0
29.99	1384.0	1325.9
30.0	1358.0	1324.8
30.01	1329.0	1323.7
30.02	1361.0	1322.6
30.03	1385.0	1321.5
30.04	1392.0	1320.5
30.05	1367.0	1319.4
30.06	1344.0	1318.3
30.07	1358.0	1317.3
30.08	1330.0	1316.2
30.09	1326.0	1315.2
30.1	1319.0	1314.1
30.11	1323.0	1313.1
30.12	1373.0	1312.0
30.13	1414.0	1311.0
30.14	1392.0	1310.0
30.15	1384.0	1308.9
30.16	1355.0	1307.9
30.17	1343.0	1306.9
30.18	1320.0	1305.9
30.19	1336.0	1304.9
30.2	1316.0	1303.9
30.21	1348.0	1302.9
30.22	1328.0	1301.9
30.23	1310.0	1300.9
30.24	1314.0	1299.9
30.25	1366.0	1298.9
30.26	1312.0	1297.9
30.27	1319.0	1297.0
30.28	1301.0	1296.0
30.29	1304.0	1295.0
30.3	1322.0	1294.1
30.31	1350.0	1293.1
30.32	1353.0	1292.2
30.33	1328.0	1291.2
30.34	1335.0	1290.3
30.35	1352.0	1289.3
30.36	1298.0	1288.4
30.37	1259.0	1287.5
30.38	1311.0	1286.5
30.39	1328.0	1285.6
30.4	1325.0	1284.7
30.41	1297.0	1283.8
30.42	1286.0	1282.8
30.43	1306.0	1281.9
30.44	1301.0	1281.0
30.45	1326.0	1280.1
30.46	1329.0	1279.2
30.47	1288.0	1278.3
30.48	1318.0	1277.4
30.49	1294.0	1276.6
30.5	1320.0	1275.7
30.51	1284.0	1274.8
30.52	1273.0	1273.9
30.53	1289.0	1273.0
30.54	1282.0	1272.2
30.55	1296.0	1271.3
30.56	1301.0	1270.4
30.57	1323.0	1269.6
30.58	1343.0	1268.7
30.59	1296.0	1267.9
30.6	1268.0	1267.0
30.61	1242.0	1266.2
30.62	1277.0	1265.4
30.63	1310.0	1264.5
30.64	1287.0	1263.7
30.65	1256.0	1262.9
30.66	1235.0	1262.0
30.67	1260.0	1261.2
30.68	1282.0	1260.4
30.69	1284.0	1259.6
30.7	1320.0	1258.8
30.71	1291.0	1258.0
30.72	1263.0	1257.2
30.73	1260.0	1256.4
30.74	1273.0	1255.6
30.75	1280.0	1254.8
30.76	1322.0	1254.0
30.77	1298.0	1253.2
30.78	1261.0	1252.4
30.79	1299.0	1251.6
30.8	1312.0	1250.9
30.81	1312.0	1250.1
30.82	1294.0	1249.3
30.83	1326.0	1248.6
30.84	1281.0	1247.8
30.85	1268.0	1247.0
30.86	1280.0	1246.3
30.87	1262.0	1245.5
30.88	1254.0	1244.8
30.89	1244.0	1244.0
30.9	1284.0	1243.3
30.91	1252.0	1242.5
30.92	1285.0	1241.8
30.93	1330.0	1241.1
30.94	1302.0	1240.3
30.95	1313.0	1239.6
30.96	1263.0	1238.9
30.97	1242.0	1238.2
30.98	1281.0	1237.5
30.99	1291.0	1236.7
31.0	1292.0	1236.0
31.01	1292.0	1235.3
31.02	1265.0	1234.6
31.03	1254.0	1233.9
31.04	1248.0	1233.2
31.05	1230.0	1232.5
31.06	1270.0	1231.8
31.07	1271.0	1231.1
31.08	1259.0	1230.5
31.09	1253.0	1229.8
31.1	1275.0	1229.1
31.11	1285.0	1228.4
31.12	1285.0	1227.7
31.13	1292.0	1227.1
31.14	1252.0	1226.4
31.15	1269.0	1225.7
31.16	1213.0	1225.1
31.17	1186.0	1224.4
31.18	1211.0	1223.7
31.19	1289.0	1223.1
31.2	1298.0	1222.4
31.21	1252.0	1221.8
31.22	1258.0	1221.1
31.23	1246.0	1220.5
31.24	1259.0	1219.9
31.25	1231.0	1219.2
31.26	1191.0	1218.6
31.27	1229.0	1217.9
31.28	1258.0	1217.3
31.29	1282.0	1216.7
31.3	1249.0	1216.1
31.31	1224.0	1215.4
31.32	1246.0	1214.8
31.33	1233.0	1214.2
31.34	1235.0	1213.6
31.35	1249.0	1213.0
31.36	1261.0	1212.4
31.37	1249.0	1211.8
31.38	1251.0	1211.2
31.39	1247.0	1210.6
31.4	1232.0	1210.0
31.41	1259.0	1209.4
31.42	1277.0	1208.8
31.43	1248.0	1208.2
31.44	1190.0	1207.6
31.45	1186.0	1207.0
31.46	1204.0	1206.4
31.47	1226.0	1205.8
31.48	1244.0	1205.3
31.49	1239.0	1204.7
31.5	1217.0	1204.1
31.51	1212.0	1203.5
31.52	1184.0	1203.0
31.53	1246.0	1202.4
31.54	1227.0	1201.8
31.55	1209.0	1201.3
31.56	1223.0	1200.7
31.57	1196.0	1200.2
31.58	1229.0	1199.6
31.59	1234.0	1199.0
31.6	1238.0	1198.5
31.61	1205.0	1197.9
31.62	1224.0	1197.4
31.63	1231.0	1196.9
31.64	1208.0	1196.3
31.65	1249.0	1195.8
31.66	1279.0	1195.2
31.67	1255.0	1194.7
31.68	1246.0	1194.2
31.69	1238.0	1193.6
31.7	1251.0	1193.1
31.71	1226.0	1192.6
31.72	1258.0	1192.1
31.73	1194.0	1191.5
31.74	1255.0	1191.0
31.75	1194.0	1190.5
31.76	1236.0	1190.0
31.77	1202.0	1189.5
31.78	1202.0	1188.9
31.79	1183.0	1188.4
31.8	1251.0	1187.9
31.81	1211.0	1187.4
31.82	1198.0	1186.9
31.83	1194.0	1186.4
31.84	1205.0	1185.9
31.85	1247.0	1185.4
31.86	1207.0	1184.9
31.87	1213.0	1184.4
31.88	1252.0	1183.9
31.89	1203.0	1183.4
31.9	1174.0	1182.9
31.91	1236.0	1182.5
31.92	1176.0	1182.0
31.93	1169.0	1181.5
31.94	1200.0	1181.0
31.95	1193.0	1180.5
31.96	1174.0	1180.0
31.97	1191.0	1179.6
31.98	1235.0	1179.1
31.99	1219.0	1178.6
32.0	1175.0	1178.1
32.01	1211.0	1177.7
32.02	1177.0	1177.2
32.03	1139.0	1176.7
32.04	1181.0	1176.3
32.05	1197.0	1175.8
32.06	1178.0	1175.3
32.07	1215.0	1174.9
32.08	1188.0	1174.4
32.09	1176.0	1174.0
32.1	1157.0	1173.5
32.11	1171.0	1173.1
32.12	1181.0	1172.6
32.13	1213.0	1172.1
32.14	1219.0	1171.7
32.15	1210.0	1171.3
32.16	1208.0	1170.8
32.17	1183.0	1170.4
32.18	1225.0	1169.9
32.19	1211.0	1169.5
32.2	1171.0	1169.0
32.21	1144.0	1168.6
32.22	1191.0	1168.2
32.23	1143.0	1167.7
32.24	1170.0	1167.3
32.25	1211.0	1166.8
32.26	1195.0	1166.4
32.27	1148.0	1166.0
32.28	1125.0	1165.5
32.29	1176.0	1165.1
32.3	1219.0	1164.7
32.31	1196.0	1164.3
32.32	1181.0	1163.8
32.33	1203.0	1163.4
32.34	1236.0	1163.0
32.35	1219.0	1162.6
32.36	1196.0	1162.2
32.37	1214.0	1161.7
32.38	1159.0	1161.3
32.39	1179.0	1160.9
32.4	1184.0	1160.5
32.41	1175.0	1160.1
32.42	1149.0	1159.7
32.43	1165.0	1159.2
32.44	1241.0	1158.8
32.45	1228.0	1158.4
32.46	1199.0	1158.0
32.47	1180.0	1157.6
32.48	1175.0	1157.2
32.49	1194.0	1156.8
32.5	1215.0	1156.4
32.51	1205.0	1156.0
32.52	1162.0	1155.6
32.53	1181.0	1155.2
32.54	1177.0	1154.8
32.55	1183.0	1154.4
32.56	1190.0	1154.0
32.57	1182.0	1153.6
32.58	1179.0	1153.2
32.59	1174.0	1152.8
32.6	1160.0	1152.4
32.61	1149.0	1152.1
32.62	1144.0	1151.7
32.63	1158.0	1151.3
32.64	1190.0	1150.9
32.65	1167.0	1150.5
32.66	1127.0	1150.1
32.67	1178.0	1149.7
32.68	1194.0	1149.4
32.69	1176.0	1149.0
32.7	1171.0	1148.6
32.71	1150.0	1148.2
32.72	1162.0	1147.8
32.73	1202.0	1147.5
32.74	1170.0	1147.1
32.75	1128.0	1146.7
32.76	1154.0	1146.4
32.77	1182.0	1146.0
32.78	1158.0	1145.6
32.79	1170.0	1145.2
32.8	1145.0	1144.9
32.81	1138.0	1144.5
32.82	1163.0	1144.2
32.83	1177.0	1143.8
32.84	1113.0	1143.4
32.85	1130.0	1143.1
32.86	1145.0	1142.7
32.87	1141.0	1142.3
32.88	1106.0	1142.0
32.89	1121.0	1141.6
32.9	1127.0	1141.3
32.91	1116.0	1140.9
32.92	1118.0	1140.6
32.93	1141.0	1140.2
32.94	1105.0	1139.9
32.95	1122.0	1139.5
32.96	1132.0	1139.2
32.97	1174.0	1138.8
32.98	1188.0	1138.5
32.99	1192.0	1138.1
33.0	1127.0	1137.8
33.01	1130.0	1137.5
33.02	1110.0	1137.1
33.03	1141.0	1136.8
33.04	1151.0	1136.4
33.05	1155.0	1136.1
33.06	1148.0	1135.8
33.07	1157.0	1135.4
33.08	1171.0	1135.1
33.09	1172.0	1134.8
33.1	1176.0	1134.4
33.11	1168.0	1134.1
33.12	1159.0	1133.8
33.13	1166.0	1133.4
33.14	1145.0	1133.1
33.15	1114.0	1132.8
33.16	1143.0	1132.4
33.17	1119.0	1132.1
33.18	1104.0	1131.8
33.19	1137.0	1131.5
33.2	1154.0	1131.2
33.21	1182.0	1130.8
33.22	1181.0	1130.5
33.23	1176.0	1130.2
33.24	1167.0	1129.9
33.25	1122.0	1129.6
33.26	1095.0	1129.2
33.27	1114.0	1128.9
33.28	1114.0	1128.6
33.29	1133.0	1128.3
33.3	1126.0	1128.0
33.31	1147.0	1127.7
33.32	1160.0	1127.4
33.33	1151.0	1127.1
33.34	1140.0	1126.8
33.35	1100.0	1126.5
33.36	1100.0	1126.2
33.37	1106.0	1125.9
33.38	1152.0	1125.5
33.39	1127.0	1125.2
33.4	1161.0	1124.9
33.41	1208.0	1124.6
33.42	1187.0	1124.3
33.43	1192.0	1124.1
33.44	1185.0	1123.8
33.45	1150.0	1123.5
33.46	1190.0	1123.2
33.47	1221.0	1122.9
33.48	1155.0	1122.6
33.49	1139.0	1122.3
33.5	1141.0	1122.0
33.51	1175.0	1121.7
33.52	1202.0	1121.4
33.53	1165.0	1121.1
33.54	1132.0	1120.8
33.55	1112.0	1120.6
33.56	1135.0	1120.3
33.57	1158.0	1120.0
33.58	1149.0	1119.7
33.59	1198.0	1119.4
33.6	1182.0	1119.2
33.61	1195.0	1118.9
33.62	1170.0	1118.6
33.63	1160.0	1118.3
33.64	1156.0	1118.0
33.65	1169.0	1117.8
33.66	1137.0	1117.5
33.67	1137.0	1117.2
33.68	1136.0	1116.9
33.69	1142.0	1116.7
33.7	1102.0	1116.4
33.71	1149.0	1116.1
33.72	1187.0	1115.9
33.73	1188.0	1115.6
33.74	1163.0	1115.3
33.75	1139.0	1115.1
33.76	1150.0	1114.8
33.77	1146.0	1114.5
33.78	1155.0	1114.3
33.79	1132.0	1114.0
33.8	1132.0	1113.8
33.81	1134.0	1113.5
33.82	1136.0	1113.2
33.83	1149.0	1113.0
33.84	1148.0	1112.7
33.85	1127.0	1112.5
33.86	1123.0	1112.2
33.87	1121.0	1111.9
33.88	1127.0	1111.7
33.89	1194.0	1111.4
33.9	1181.0	1111.2
33.91	1106.0	1110.9
33.92	1102.0	1110.7
33.93	1112.0	1110.4
33.94	1132.0	1110.2
33.95	1134.0	1109.9
33.96	1141.0	1109.7
33.97	1103.0	1109.5
33.98	1110.0	1109.2
33.99	1165.0	1109.0
34.0	1142.0	1108.7
34.01	1105.0	1108.5
34.02	1114.0	1108.2
34.03	1112.0	1108.0
34.04	1130.0	1107.8
34.05	1135.0	1107.5
34.06	1151.0	1107.3
34.07	1158.0	1107.1
34.08	1135.0	1106.8
34.09	1121.0	1106.6
34.1	1122.0	1106.3
34.11	1150.0	1106.1
34.12	1159.0	1105.9
34.13	1144.0	1105.7
34.14	1161.0	1105.4
34.15	1152.0	1105.2
34.16	1141.0	1105.0
34.17	1166.0	1104.7
34.18	1164.0	1104.5
34.19	1139.0	1104.3
34.2	1145.0	1104.1
34.21	1149.0	1103.8
34.22	1128.0	1103.6
34.23	1128.0	1103.4
34.24	1118.0	1103.2
34.25	1125.0	1102.9
34.26	1138.0	1102.7
34.27	1126.0	1102.5
34.28	1101.0	1102.3
34.29	1141.0	1102.1
34.3	1150.0	1101.9
34.31	1082.0	1101.6
34.32	1095.0	1101.4
34.33	1121.0	1101.2
34.34	1150.0	1101.0
34.35	1155.0	1100.8
34.36	1151.0	1100.6
34.37	1088.0	1100.4
34.38	1054.0	1100.1
34.39	1095.0	1099.9
34.4	1122.0	1099.7
34.41	1136.0	1099.5
34.42	1138.0	1099.3
34.43	1142.0	1099.1
34.44	1176.0	1098.9
34.45	1170.0	1098.7
34.46	1168.0	1098.5
34.47	1123.0	1098.3
34.48	1134.0	1098.1
34.49	1134.0	1097.9
34.5	1091.0	1097.7
34.51	1109.0	1097.5
34.52	1146.0	1097.3
34.53	1168.0	1097.1
34.54	1150.0	1096.9
34.55	1141.0	1096.7
34.56	1134.0	1096.5
34.57	1104.0	1096.3
34.58	1101.0	1096.1
34.59	1113.0	1095.9
34.6	1142.0	1095.7
34.61	1136.0	1095.5
34.62	1112.0	1095.3
34.63	1108.0	1095.1
34.64	1151.0	1095.0
34.65	1182.0	1094.8
34.66	1142.0	1094.6
34.67	1137.0	1094.4
34.68	1149.0	1094.2
34.69	1134.0	1094.0
34.7	1108.0	1093.8
34.71	1142.0	1093.7
34.72	1157.0	1093.5
34.73	1161.0	1093.3
34.74	1186.0	1093.1
34.75	1180.0	1092.9
34.76	1143.0	1092.7
34.77	1122.0	1092.6
34.78	1125.0	1092.4
34.79	1138.0	1092.2
34.8	1143.0	1092.0
34.81	1141.0	1091.8
34.82	1132.0	1091.7
34.83	1120.0	1091.5
34.84	1144.0	1091.3
34.85	1161.0	1091.1
34.86	1134.0	1091.0
34.87	1152.0	1090.8
34.88	1140.0	1090.6
34.89	1119.0	1090.4
34.9	1118.0	1090.3
34.91	1145.0	1090.1
34.92	1153.0	1089.9
34.93	1150.0	1089.8
34.94	1162.0	1089.6
34.95	1123.0	1089.4
34.96	1128.0	1089.3
34.97	1147.0	1089.1
34.98	1111.0	1088.9
34.99	1092.0	1088.8
35.0	1130.0	1088.6
35.01	1154.0	1088.4
35.02	1122.0	1088.3
35.03	1099.0	1088.1
35.04	1115.0	1087.9
35.05	1115.0	1087.8
35.06	1107.0	1087.6
35.07	1107.0	1087.5
35.08	1097.0	1087.3
35.09	1083.0	1087.2
35.1	1099.0	1087.0
35.11	1129.0	1086.8
35.12	1124.0	1086.7
35.13	1107.0	1086.5
35.14	1088.0	1086.4
35.15	1095.0	1086.2
35.16	1117.0	1086.1
35.17	1120.0	1085.9
35.18	1098.0	1085.8
35.19	1097.0	1085.6
35.2	1128.0	1085.4
35.21	1117.0	1085.3
35.22	1100.0	1085.1
35.23	1117.0	1085.0
35.24	1109.0	1084.8
35.25	1116.0	1084.7
35.26	1135.0	1084.6
35.27	1138.0	1084.4
35.28	1121.0	1084.3
35.29	1113.0	1084.1
35.3	1120.0	1084.0
35.31	1128.0	1083.8
35.32	1129.0	1083.7
35.33	1100.0	1083.5
35.34	1095.0	1083.4
35.35	1112.0	1083.2
35.36	1104.0	1083.1
35.37	1126.0	1083.0
35.38	1132.0	1082.8
35.39	1139.0	1082.7
35.4	1124.0	1082.5
35.41	1107.0	1082.4
35.42	1112.0	1082.3
35.43	1126.0	1082.1
35.44	1138.0	1082.0
35.45	1114.0	1081.9
35.46	1094.0	1081.7
35.47	1104.0	1081.6
35.48	1114.0	1081.4
35.49	1112.0	1081.3
35.5	1107.0	1081.2
35.51	1097.0	1081.0
35.52	1108.0	1080.9
35.53	1117.0	1080.8
35.54	1121.0	1080.6
35.55	1111.0	1080.5
35.56	1102.0	1080.4
35.57	1117.0	1080.3
35.58	1126.0	1080.1
35.59	1130.0	1080.0
35.6	1138.0	1079.9
35.61	1114.0	1079.7
35.62	1108.0	1079.6
35.63	1121.0	1079.5
35.64	1126.0	1079.4
35.65	1133.0	1079.2
35.66	1113.0	1079.1
35.67	1098.0	1079.0
35.68	1094.0	1078.9
35.69	1104.0	1078.7
35.7	1112.0	1078.6
35.71	1121.0	1078.5
35.72	1116.0	1078.4
35.73	1101.0	1078.2
35.74	1101.0	1078.1
35.75	1117.0	1078.0
35.76	1125.0	1077.9
35.77	1133.0	1077.8
35.78	1144.0	1077.6
35.79	1121.0	1077.5
35.8	1103.0	1077.4
35.81	1111.0	1077.3
35.82	1096.0	1077.2
35.83	1116.0	1077.0
35.84	1142.0	1076.9
35.85	1127.0	1076.8
35.86	1111.0	1076.7
35.87	1106.0	1076.6
35.88	1112.0	1076.5
35.89	1113.0	1076.4
35.9	1104.0	1076.2
35.91	1091.0	1076.1
35.92	1077.0	1076.0
35.93	1061.0	1075.9
35.94	1086.0	1075.8
35.95	1091.0	1075.7
35.96	1096.0	1075.6
35.97	1086.0	1075.5
35.98	1080.0	1075.3
35.99	1106.0	1075.2
36.0	1113.0	1075.1
36.01	1117.0	1075.0
36.02	1118.0	1074.9
36.03	1106.0	1074.8
36.04	1087.0	1074.7
36.05	1089.0	1074.6
36.06	1113.0	1074.5
36.07	1124.0	1074.4
36.08	1125.0	1074.3
36.09	1138.0	1074.2
36.1	1157.0	1074.1
36.11	1162.0	1074.0
36.12	1151.0	1073.9
36.13	1130.0	1073.7
36.14	1130.0	1073.6
36.15	1158.0	1073.5
36.16	1176.0	1073.4
36.17	1155.0	1073.3
36.18	1137.0	1073.2
36.19	1156.0	1073.1
36.2	1148.0	1073.0
36.21	1129.0	1072.9
36.22	1126.0	1072.8
36.23	1122.0	1072.7
36.24	1120.0	1072.6
36.25	1121.0	1072.5
36.26	1150.0	1072.4
36.27	1179.0	1072.3
36.28	1172.0	1072.2
36.29	1150.0	1072.1
36.3	1139.0	1072.0
36.31	1139.0	1071.9
36.32	1139.0	1071.8
36.33	1125.0	1071.8
36.34	1115.0	1071.7
36.35	1132.0	1071.6
36.36	1151.0	1071.5
36.37	1151.0	1071.4
36.38	1156.0	1071.3
36.39	1177.0	1071.2
36.4	1180.0	1071.1
36.41	1179.0	1071.0
36.42	1199.0	1070.9
36.43	1186.0	1070.8
36.44	1157.0	1070.7
36.45	1162.0	1070.6
36.46	1168.0	1070.5
36.47	1185.0	1070.4
36.48	1188.0	1070.4
36.49	1150.0	1070.3
36.5	1138.0	1070.2
36.51	1161.0	1070.1
36.52	1162.0	1070.0
36.53	1162.0	1069.9
36.54	1170.0	1069.8
36.55	1168.0	1069.7
36.56	1189.0	1069.6
36.57	1210.0	1069.5
36.58	1204.0	1069.5
36.59	1179.0	1069.4
36.6	1154.0	1069.3
36.61	1167.0	1069.2
36.62	1190.0	1069.1
36.63	1196.0	1069.0
36.64	1211.0	1068.9
36.65	1203.0	1068.9
36.66	1214.0	1068.8
36.67	1228.0	1068.7
36.68	1208.0	1068.6
36.69	1206.0	1068.5
36.7	1213.0	1068.4
36.71	1237.0	1068.3
36.72	1231.0	1068.3
36.73	1214.0	1068.2
36.74	1230.0	1068.1
36.75	1232.0	1068.0
36.76	1248.0	1067.9
36.77	1238.0	1067.8
36.78	1209.0	1067.8
36.79	1225.0	1067.7
36.8	1244.0	1067.6
36.81	1261.0	1067.5
36.82	1244.0	1067.4
36.83	1234.0	1067.4
36.84	1243.0	1067.3
36.85	1209.0	1067.2
36.86	1201.0	1067.1
36.87	1214.0	1067.0
36.88	1229.0	1067.0
36.89	1224.0	1066.9
36.9	1195.0	1066.8
36.91	1202.0	1066.7
36.92	1209.0	1066.6
36.93	1176.0	1066.6
36.94	1157.0	1066.5
36.95	1168.0	1066.4
36.96	1193.0	1066.3
36.97	1203.0	1066.2
36.98	1213.0	1066.2
36.99	1239.0	1066.1
37.0	1216.0	1066.0
37.01	1208.0	1065.9
37.02	1237.0	1065.9
37.03	1245.0	1065.8
37.04	1244.0	1065.7
37.05	1255.0	1065.6
37.06	1298.0	1065.6
37.07	1268.0	1065.5
37.08	1191.0	1065.4
37.09	1223.0	1065.3
37.1	1261.0	1065.3
37.11	1245.0	1065.2
37.12	1249.0	1065.1
37.13	1258.0	1065.0
37.14	1261.0	1065.0
37.15	1282.0	1064.9
37.16	1339.0	1064.8
37.17	1345.0	1064.7
37.18	1284.0	1064.7
37.19	1267.0	1064.6
37.2	1283.0	1064.5
37.21	1319.0	1064.4
37.22	1340.0	1064.4
37.23	1326.0	1064.3
37.24	1317.0	1064.2
37.25	1321.0	1064.2
37.26	1345.0	1064.1
37.27	1354.0	1064.0
37.28	1352.0	1063.9
37.29	1345.0	1063.9
37.3	1345.0	1063.8
37.31	1368.0	1063.7
37.32	1419.0	1063.6
37.33	1421.0	1063.6
37.34	1382.0	1063.5
37.35	1356.0	1063.4
37.36	1370.0	1063.4
37.37	1404.0	1063.3
37.38	1434.0	1063.2
37.39	1457.0	1063.2
37.4	1462.0	1063.1
37.41	1430.0	1063.0
37.42	1420.0	1062.9
37.43	1429.0	1062.9
37.44	1424.0	1062.8
37.45	1421.0	1062.7
37.46	1427.0	1062.7
37.47	1475.0	1062.6
37.48	1507.0	1062.5
37.49	1505.0	1062.4
37.5	1502.0	1062.4
37.51	1504.0	1062.3
37.52	1504.0	1062.2
37.53	1495.0	1062.2
37.54	1479.0	1062.1
37.55	1486.0	1062.0
37.56	1501.0	1062.0
37.57	1485.0	1061.9
37.58	1467.0	1061.8
37.59	1483.0	1061.8
37.6	1498.0	1061.7
37.61	1526.0	1061.6
37.62	1545.0	1061.6
37.63	1535.0	1061.5
37.64	1521.0	1061.4
37.65	1493.0	1061.3
37.66	1480.0	1061.3
37.67	1479.0	1061.2
37.68	1489.0	1061.1
37.69	1501.0	1061.1
37.7	1512.0	1061.0
37.71	1519.0	1060.9
37.72	1471.0	1060.9
37.73	1464.0	1060.8
37.74	1501.0	1060.7
37.75	1481.0	1060.7
37.76	1490.0	1060.6
37.77	1504.0	1060.5
37.78	1505.0	1060.5
37.79	1535.0	1060.4
37.8	1545.0	1060.3
37.81	1547.0	1060.3
37.82	1560.0	1060.2
37.83	1541.0	1060.1
37.84	1509.0	1060.1
37.85	1511.0	1060.0
37.86	1584.0	1059.9
37.87	1608.0	1059.9
37.88	1598.0	1059.8
37.89	1600.0	1059.7
37.9	1598.0	1059.7
37.91	1604.0	1059.6
37.92	1632.0	1059.5
37.93	1626.0	1059.4
37.94	1592.0	1059.4
37.95	1563.0	1059.3
37.96	1590.0	1059.2
37.97	1647.0	1059.2
37.98	1679.0	1059.1
37.99	1677.0	1059.0
38.0	1651.0	1059.0
38.01	1631.0	1058.9
38.02	1663.0	1058.8
38.03	1715.0	1058.8
38.04	1754.0	1058.7
38.05	1747.0	1058.6
38.06	1724.0	1058.6
38.07	1733.0	1058.5
38.08	1762.0	1058.4
38.09	1816.0	1058.4
38.1	1813.0	1058.3
38.11	1812.0	1058.2
38.12	1827.0	1058.2
38.13	1844.0	1058.1
38.14	1881.0	1058.0
38.15	1897.0	1058.0
38.16	1910.0	1057.9
38.17	1936.0	1057.8
38.18	1961.0	1057.7
38.19	1957.0	1057.7
38.2	1917.0	1057.6
38.21	1942.0	1057.5
38.22	1984.0	1057.5
38.23	2026.0	1057.4
38.24	2055.0	1057.3
38.25	2065.0	1057.3
38.26	2093.0	1057.2
38.27	2087.0	1057.1
38.28	2059.0	1057.1
38.29	2075.0	1057.0
38.3	2148.0	1056.9
38.31	2175.0	1056.9
38.32	2151.0	1056.8
38.33	2156.0	1056.7
38.34	2172.0	1056.6
38.35	2187.0	1056.6
38.36	2185.0	1056.5
38.37	2159.0	1056.4
38.38	2168.0	1056.4
38.39	2157.0	1056.3
38.4	2154.0	1056.2
38.41	2190.0	1056.2
38.42	2242.0	1056.1
38.43	2215.0	1056.0
38.44	2184.0	1055.9
38.45	2202.0	1055.9
38.46	2204.0	1055.8
38.47	2168.0	1055.7
38.48	2130.0	1055.7
38.49	2107.0	1055.6
38.5	2099.0	1055.5
38.51	2065.0	1055.4
38.52	2067.0	1055.4
38.53	2058.0	1055.3
38.54	2049.0	1055.2
38.55	2038.0	1055.2
38.56	2034.0	1055.1
38.57	1966.0	1055.0
38.58	1971.0	1054.9
38.59	2006.0	1054.9
38.6	2008.0	1054.8
38.61	1980.0	1054.7
38.62	1968.0	1054.6
38.63	1913.0	1054.6
38.64	1877.0	1054.5
38.65	1855.0	1054.4
38.66	1829.0	1054.3
38.67	1809.0	1054.3
38.68	1813.0	1054.2
38.69	1792.0	1054.1
38.7	1780.0	1054.0
38.71	1783.0	1054.0
38.72	1777.0	1053.9
38.73	1763.0	1053.8
38.74	1782.0	1053.7
38.75	1746.0	1053.7
38.76	1736.0	1053.6
38.77	1745.0	1053.5
38.78	1716.0	1053.4
38.79	1650.0	1053.4
38.8	1584.0	1053.3
38.81	1648.0	1053.2
38.82	1660.0	1053.1
38.83	1649.0	1053.1
38.84	1640.0	1053.0
38.85	1631.0	1052.9
38.86	1620.0	1052.8
38.87	1620.0	1052.7
38.88	1622.0	1052.7
38.89	1596.0	1052.6
38.9	1591.0	1052.5
38.91	1613.0	1052.4
38.92	1588.0	1052.4
38.93	1578.0	1052.3
38.94	1579.0	1052.2
38.95	1608.0	1052.1
38.96	1570.0	1052.0
38.97	1539.0	1052.0
38.98	1590.0	1051.9
38.99	1593.0	1051.8
39.0	1562.0	1051.7
39.01	1556.0	1051.6
39.02	1578.0	1051.5
39.03	1567.0	1051.5
39.04	1527.0	1051.4
39.05	1520.0	1051.3
39.06	1533.0	1051.2
39.07	1535.0	1051.1
39.08	1483.0	1051.0
39.09	1459.0	1051.0
39.1	1494.0	1050.9
39.11	1493.0	1050.8
39.12	1523.0	1050.7
39.13	1500.0	1050.6
39.14	1473.0	1050.5
39.15	1449.0	1050.5
39.16	1451.0	1050.4
39.17	1471.0	1050.3
39.18	1481.0	1050.2
39.19	1478.0	1050.1
39.2	1471.0	1050.0
39.21	1440.0	1049.9
39.22	1440.0	1049.9
39.23	1410.0	1049.8
39.24	1438.0	1049.7
39.25	1410.0	1049.6
39.26	1400.0	1049.5
39.27	1410.0	1049.4
39.28	1389.0	1049.3
39.29	1385.0	1049.2
39.3	1395.0	1049.1
39.31	1356.0	1049.1
39.32	1367.0	1049.0
39.33	1370.0	1048.9
39.34	1355.0	1048.8
39.35	1340.0	1048.7
39.36	1387.0	1048.6
39.37	1339.0	1048.5
39.38	1320.0	1048.4
39.39	1358.0	1048.3
39.4	1334.0	1048.2
39.41	1297.0	1048.1
39.42	1252.0	1048.0
39.43	1269.0	1047.9
39.44	1279.0	1047.8
39.45	1265.0	1047.8
39.46	1266.0	1047.7
39.47	1273.0	1047.6
39.48	1240.0	1047.5
39.49	1239.0	1047.4
39.5	1228.0	1047.3
39.51	1218.0	1047.2
39.52	1233.0	1047.1
39.53	1246.0	1047.0
39.54	1225.0	1046.9
39.55	1204.0	1046.8
39.56	1185.0	1046.7
39.57	1205.0	1046.6
39.58	1191.0	1046.5
39.59	1214.0	1046.4
39.6	1186.0	1046.3
39.61	1179.0	1046.2
39.62	1203.0	1046.1
39.63	1160.0	1046.0
39.64	1135.0	1045.9
39.65	1175.0	1045.8
39.66	1144.0	1045.7
39.67	1142.0	1045.6
39.68	1154.0	1045.5
39.69	1169.0	1045.4
39.7	1158.0	1045.3
39.71	1153.0	1045.2
39.72	1121.0	1045.1
39.73	1120.0	1044.9
39.74	1126.0	1044.8
39.75	1157.0	1044.7
39.76	1174.0	1044.6
39.77	1167.0	1044.5
39.78	1152.0	1044.4
39.79	1110.0	1044.3
39.8	1119.0	1044.2
39.81	1142.0	1044.1
39.82	1112.0	1044.0
39.83	1103.0	1043.9
39.84	1095.0	1043.8
39.85	1113.0	1043.6
39.86	1139.0	1043.5
39.87	1137.0	1043.4
39.88	1126.0	1043.3
39.89	1105.0	1043.2
39.9	1105.0	1043.1
39.91	1108.0	1043.0
39.92	1089.0	1042.9
39.93	1114.0	1042.7
39.94	1109.0	1042.6
39.95	1123.0	1042.5
39.96	1129.0	1042.4
39.97	1094.0	1042.3
39.98	1072.0	1042.2
39.99	1069.0	1042.0
40.0	1102.0	1041.9
40.01	1087.0	1041.8
40.02	1101.0	1041.7
40.03	1092.0	1041.6
40.04	1094.0	1041.4
40.05	1091.0	1041.3
40.06	1064.0	1041.2
40.07	1044.0	1041.1
40.08	1095.0	1041.0
40.09	1077.0	1040.8
40.1	1090.0	1040.7
40.11	1115.0	1040.6
40.12	1098.0	1040.5
40.13	1056.0	1040.3
40.14	1073.0	1040.2
40.15	1074.0	1040.1
40.16	1073.0	1040.0
40.17	1042.0	1039.8
40.18	1060.0	1039.7
40.19	1081.0	1039.6
40.2	1062.0	1039.5
40.21	1061.0	1039.3
40.22	1055.0	1039.2
40.23	1055.0	1039.1
40.24	1032.0	1038.9
40.25	1049.0	1038.8
40.26	1039.0	1038.7
40.27	1050.0	1038.6
40.28	1070.0	1038.4
40.29	1067.0	1038.3
40.3	1038.0	1038.2
40.31	1067.0	1038.0
40.32	1084.0	1037.9
40.33	1094.0	1037.8
40.34	1072.0	1037.6
40.35	1081.0	1037.5
40.36	1055.0	1037.3
40.37	1047.0	1037.2
40.38	1067.0	1037.1
40.39	1102.0	1036.9
40.4	1079.0	1036.8
40.41	1037.0	1036.7
40.42	1050.0	1036.5
40.43	1085.0	1036.4
40.44	1076.0	1036.2
40.45	1024.0	1036.1
40.46	1013.0	1036.0
40.47	1019.0	1035.8
40.48	1043.0	1035.7
40.49	1043.0	1035.5
40.5	1026.0	1035.4
40.51	1022.0	1035.2
40.52	1039.0	1035.1
40.53	1045.0	1034.9
40.54	1031.0	1034.8
40.55	1048.0	1034.7
40.56	1021.0	1034.5
40.57	1016.0	1034.4
40.58	1008.0	1034.2
40.59	1014.0	1034.1
40.6	1024.0	1033.9
40.61	1014.0	1033.8
40.62	1020.0	1033.6
40.63	1007.0	1033.5
40.64	1038.0	1033.3
40.65	1045.0	1033.2
40.66	1086.0	1033.0
40.67	1067.0	1032.9
40.68	1010.0	1032.7
40.69	1029.0	1032.6
40.7	1060.0	1032.4
40.71	1023.0	1032.3
40.72	1003.0	1032.1
40.73	1010.0	1031.9
40.74	1012.0	1031.8
40.75	1009.0	1031.6
40.76	1031.0	1031.5
40.77	1004.0	1031.3
40.78	1008.0	1031.2
40.79	1021.0	1031.0
40.8	1038.0	1030.8
40.81	1089.0	1030.7
40.82	1026.0	1030.5
40.83	1051.0	1030.4
40.84	1044.0	1030.2
40.85	1063.0	1030.0
40.86	1020.0	1029.9
40.87	1026.0	1029.7
40.88	1035.0	1029.6
40.89	1017.0	1029.4
40.9	1004.0	1029.2
40.91	1019.0	1029.1
40.92	1029.0	1028.9
40.93	1018.0	1028.7
40.94	1038.0	1028.6
40.95	1048.0	1028.4
40.96	1019.0	1028.2
40.97	968.0	1028.1
40.98	971.0	1027.9
40.99	995.0	1027.7
41.0	1043.0	1027.6
41.01	1058.0	1027.4
41.02	1031.0	1027.2
41.03	1007.0	1027.1
41.04	1054.0	1026.9
41.05	1056.0	1026.7
41.06	1056.0	1026.5
41.07	1009.0	1026.4
41.08	974.0	1026.2
41.09	1009.0	1026.0
41.1	1017.0	1025.9
41.11	1022.0	1025.7
41.12	1064.0	1025.5
41.13	1042.0	1025.3
41.14	1016.0	1025.2
41.15	1022.0	1025.0
41.16	1072.0	1024.8
41.17	1049.0	1024.6
41.18	1012.0	1024.5
41.19	1019.0	1024.3
41.2	1038.0	1024.1
41.21	1043.0	1023.9
41.22	1023.0	1023.7
41.23	1049.0	1023.6
41.24	1049.0	1023.4
41.25	988.0	1023.2
41.26	1007.0	1023.0
41.27	1005.0	1022.8
41.28	1074.0	1022.7
41.29	1055.0	1022.5
41.3	1018.0	1022.3
41.31	1057.0	1022.1
41.32	1073.0	1021.9
41.33	1017.0	1021.7
41.34	1052.0	1021.6
41.35	1038.0	1021.4
41.36	1066.0	1021.2
41.37	1051.0	1021.0
41.38	1010.0	1020.8
41.39	1015.0	1020.6
41.4	1012.0	1020.4
41.41	1010.0	1020.3
41.42	1022.0	1020.1
41.43	1013.0	1019.9
41.44	1034.0	1019.7
41.45	1003.0	1019.5
41.46	1005.0	1019.3
41.47	1045.0	1019.1
41.48	1030.0	1018.9
41.49	1016.0	1018.7
41.5	1001.0	1018.6
41.51	1015.0	1018.4
41.52	1069.0	1018.2
41.53	1074.0	1018.0
41.54	1063.0	1017.8
41.55	1044.0	1017.6
41.56	1065.0	1017.4
41.57	1038.0	1017.2
41.58	1043.0	1017.0
41.59	1083.0	1016.8
41.6	1039.0	1016.6
41.61	1016.0	1016.4
41.62	1045.0	1016.2
41.63	1039.0	1016.0
41.64	1018.0	1015.8
41.65	1061.0	1015.6
41.66	1086.0	1015.4
41.67	1078.0	1015.2
41.68	1037.0	1015.0
41.69	1024.0	1014.8
41.7	1038.0	1014.6
41.71	1073.0	1014.4
41.72	1022.0	1014.2
41.73	1014.0	1014.0
41.74	1038.0	1013.8
41.75	1066.0	1013.6
41.76	1065.0	1013.4
41.77	1046.0	1013.2
41.78	1068.0	1013.0
41.79	1044.0	1012.8
41.8	1029.0	1012.6
41.81	1038.0	1012.4
41.82	1054.0	1012.2
41.83	1042.0	1012.0
41.84	1030.0	1011.8
41.85	1033.0	1011.6
41.86	1044.0	1011.4
41.87	1029.0	1011.2
41.88	1040.0	1011.0
41.89	1072.0	1010.8
41.9	1111.0	1010.6
41.91	1044.0	1010.4
41.92	1022.0	1010.1
41.93	1009.0	1009.9
41.94	1030.0	1009.7
41.95	1062.0	1009.5
41.96	1050.0	1009.3
41.97	1033.0	1009.1
41.98	1039.0	1008.9
41.99	1054.0	1008.7
42.0	1054.0	1008.5
42.01	1064.0	1008.3
42.02	1039.0	1008.0
42.03	1034.0	1007.8
42.04	1042.0	1007.6
42.05	1038.0	1007.4
42.06	1019.0	1007.2
42.07	1003.0	1007.0
42.08	1053.0	1006.8
42.09	1014.0	1006.5
42.1	1015.0	1006.3
42.11	1056.0	1006.1
42.12	986.0	1005.9
42.13	973.0	1005.7
42.14	990.0	1005.5
42.15	1013.0	1005.2
42.16	995.0	1005.0
42.17	1025.0	1004.8
42.18	1034.0	1004.6
42.19	1043.0	1004.4
42.2	988.0	1004.1
42.21	1002.0	1003.9
42.22	1031.0	1003.7
42.23	1003.0	1003.5
42.24	972.0	1003.3
42.25	990.0	1003.0
42.26	1017.0	1002.8
42.27	1005.0	1002.6
42.28	980.0	1002.4
42.29	986.0	1002.2
42.3	1038.0	1001.9
42.31	1016.0	1001.7
42.32	1006.0	1001.5
42.33	994.0	1001.3
42.34	997.0	1001.0
42.35	998.0	1000.8
42.36	1027.0	1000.6
42.37	989.0	1000.4
42.38	979.0	1000.1
42.39	1012.0	999.9
42.4	1039.0	999.7
42.41	1002.0	999.5
42.42	1032.0	999.2
42.43	1004.0	999.0
42.44	984.0	998.8
42.45	999.0	998.5
42.46	994.0	998.3
42.47	994.0	998.1
42.48	1016.0	997.8
42.49	1027.0	997.6
42.5	1039.0	997.4
42.51	1001.0	997.2
42.52	1014.0	996.9
42.53	1022.0	996.7
42.54	1041.0	996.5
42.55	1031.0	996.2
42.56	1029.0	996.0
42.57	1036.0	995.8
42.58	987.0	995.5
42.59	1054.0	995.3
42.6	1052.0	995.1
42.61	989.0	994.8
42.62	1002.0	994.6
42.63	1044.0	994.4
42.64	1018.0	994.1
42.65	969.0	993.9
42.66	991.0	993.7
42.67	1023.0	993.4
42.68	1045.0	993.2
42.69	1026.0	992.9
42.7	988.0	992.7
42.71	1028.0	992.5
42.72	1065.0	992.2
42.73	1042.0	992.0
42.74	1012.0	991.8
42.75	972.0	991.5
42.76	1022.0	991.3
42.77	1041.0	991.0
42.78	1043.0	990.8
42.79	999.0	990.6
42.8	1048.0	990.3
42.81	989.0	990.1
42.82	1038.0	989.8
42.83	1020.0	989.6
42.84	1003.0	989.3
42.85	1071.0	989.1
42.86	1044.0	988.9
42.87	1031.0	988.6
42.88	1053.0	988.4
42.89	1025.0	988.1
42.9	995.0	987.9
42.91	1019.0	987.6
42.92	1013.0	987.4
42.93	1043.0	987.2
42.94	1058.0	986.9
42.95	1040.0	986.7
42.96	1012.0	986.4
42.97	1002.0	986.2
42.98	998.0	985.9
42.99	1010.0	985.7
43.0	1007.0	985.4
43.01	985.0	985.2
43.02	1016.0	984.9
43.03	1031.0	984.7
43.04	1037.0	984.4
43.05	1032.0	984.2
43.06	1009.0	983.9
43.07	985.0	983.7
43.08	982.0	983.4
43.09	985.0	983.2
43.1	989.0	982.9
43.11	966.0	982.7
43.12	967.0	982.4
43.13	997.0	982.2
43.14	1005.0	981.9
43.15	1019.0	981.7
43.16	1044.0	981.4
43.17	998.0	981.2
43.18	967.0	980.9
43.19	999.0	980.7
43.2	998.0	980.4
43.21	1031.0	980.2
43.22	1027.0	979.9
43.23	1018.0	979.7
43.24	1004.0	979.4
43.25	1002.0	979.2
43.26	997.0	978.9
43.27	990.0	978.6
43.28	1015.0	978.4
43.29	1022.0	978.1
43.3	1027.0	977.9
43.31	982.0	977.6
43.32	989.0	977.4
43.33	1028.0	977.1
43.34	1021.0	976.8
43.35	951.0	976.6
43.36	923.0	976.3
43.37	956.0	976.1
43.38	1006.0	975.8
43.39	1018.0	975.6
43.4	1028.0	975.3
43.41	1015.0	975.0
43.42	1020.0	974.8
43.43	1060.0	974.5
43.44	1061.0	974.3
43.45	1024.0	974.0
43.46	983.0	973.7
43.47	1007.0	973.5
43.48	1014.0	973.2
43.49	1007.0	973.0
43.5	1001.0	972.7
43.51	979.0	972.4
43.52	998.0	972.2
43.53	1008.0	971.9
43.54	1020.0	971.6
43.55	999.0	971.4
43.56	1017.0	971.1
43.57	1031.0	970.9
43.58	1008.0	970.6
43.59	985.0	970.3
43.6	976.0	970.1
43.61	971.0	969.8
43.62	981.0	969.5
43.63	986.0	969.3
43.64	982.0	969.0
43.65	1008.0	968.7
43.66	1022.0	968.5
43.67	986.0	968.2
43.68	976.0	967.9
43.69	1021.0	967.7
43.7	1004.0	967.4
43.71	960.0	967.1
43.72	976.0	966.9
43.73	1004.0	966.6
43.74	1019.0	966.3
43.75	1002.0	966.1
43.76	994.0	965.8
43.77	990.0	965.5
43.78	987.0	965.3
43.79	980.0	965.0
43.8	963.0	964.7
43.81	988.0	964.4
43.82	1000.0	964.2
43.83	998.0	963.9
43.84	982.0	963.6
43.85	987.0	963.4
43.86	974.0	963.1
43.87	978.0	962.8
43.88	973.0	962.5
43.89	969.0	962.3
43.9	968.0	962.0
43.91	991.0	961.7
43.92	972.0	961.5
43.93	965.0	961.2
43.94	962.0	960.9
43.95	961.0	960.6
43.96	952.0	960.4
43.97	938.0	960.1
43.98	957.0	959.8
43.99	964.0	959.5
44.0	1007.0	959.3
44.01	1003.0	959.0
44.02	978.0	958.7
44.03	967.0	958.4
44.04	969.0	958.2
44.05	956.0	957.9
44.06	978.0	957.6
44.07	985.0	957.3
44.08	957.0	957.1
44.09	960.0	956.8
44.1	976.0	956.5
44.11	975.0	956.2
44.12	977.0	956.0
44.13	969.0	955.7
44.14	960.0	955.4
44.15	955.0	955.1
44.16	969.0	954.8
44.17	1000.0	954.6
44.18	1003.0	954.3
44.19	1011.0	954.0
44.2	1026.0	953.7
44.21	988.0	953.5
44.22	968.0	953.2
44.23	989.0	952.9
44.24	1012.0	952.6
44.25	961.0	952.3
44.26	948.0	952.1
44.27	964.0	951.8
44.28	966.0	951.5
44.29	985.0	951.2
44.3	992.0	950.9
44.31	974.0	950.7
44.32	987.0	950.4
44.33	984.0	950.1
44.34	990.0	949.8
44.35	964.0	949.5
44.36	970.0	949.2
44.37	986.0	949.0
44.38	973.0	948.7
44.39	977.0	948.4
44.4	976.0	948.1
44.41	958.0	947.8
44.42	978.0	947.5
44.43	958.0	947.3
44.44	933.0	947.0
44.45	961.0	946.7
44.46	951.0	946.4
44.47	958.0	946.1
44.48	921.0	945.8
44.49	917.0	945.6
44.5	951.0	945.3
44.51	953.0	945.0
44.52	939.0	944.7
44.53	954.0	944.4
44.54	977.0	944.1
44.55	980.0	943.8
44.56	957.0	943.6
44.57	941.0	943.3
44.58	975.0	943.0
44.59	985.0	942.7
44.6	994.0	942.4
44.61	977.0	942.1
44.62	962.0	941.8
44.63	967.0	941.5
44.64	977.0	941.3
44.65	961.0	941.0
44.66	951.0	940.7
44.67	950.0	940.4
44.68	977.0	940.1
44.69	952.0	939.8
44.7	942.0	939.5
44.71	952.0	939.2
44.72	995.0	939.0
44.73	978.0	938.7
44.74	935.0	938.4
44.75	961.0	938.1
44.76	972.0	937.8
44.77	945.0	937.5
44.78	915.0	937.2
44.79	920.0	936.9
44.8	946.0	936.6
44.81	925.0	936.3
44.82	946.0	936.1
44.83	976.0	935.8
44.84	934.0	935.5
44.85	928.0	935.2
44.86	938.0	934.9
44.87	936.0	934.6
44.88	928.0	934.3
44.89	937.0	934.0
44.9	942.0	933.7
44.91	936.0	933.4
44.92	912.0	933.1
44.93	912.0	932.8
44.94	951.0	932.6
44.95	929.0	932.3
44.96	915.0	932.0
44.97	924.0	931.7
44.98	937.0	931.4
44.99	907.0	931.1
45.0	917.0	930.8
45.01	905.0	930.5
45.02	916.0	930.2
45.03	898.0	929.9
45.04	922.0	929.6
45.05	948.0	929.3
45.06	934.0	929.0
45.07	950.0	928.7
45.08	944.0	928.4
45.09	936.0	928.1
45.1	923.0	927.8
45.11	923.0	927.6
45.12	932.0	927.3
45.13	903.0	927.0
45.14	913.0	926.7
45.15	881.0	926.4
45.16	881.0	926.1
45.17	882.0	925.8
45.18	887.0	925.5
45.19	890.0	925.2
45.2	896.0	924.9
45.21	906.0	924.6
45.22	947.0	924.3
45.23	970.0	924.0
45.24	940.0	923.7
45.25	913.0	923.4
45.26	931.0	923.1
45.27	960.0	922.8
45.28	924.0	922.5
45.29	890.0	922.2
45.3	874.0	921.9
45.31	888.0	921.6
45.32	882.0	921.3
45.33	887.0	921.0
45.34	893.0	920.7
45.35	894.0	920.4
45.36	896.0	920.1
45.37	905.0	919.8
45.38	908.0	919.5
45.39	911.0	919.2
45.4	927.0	918.9
45.41	914.0	918.6
45.42	911.0	918.3
45.43	930.0	918.0
45.44	926.0	917.7
45.45	913.0	917.4
45.46	888.0	917.1
45.47	876.0	916.8
45.48	878.0	916.5
45.49	890.0	916.2
45.5	890.0	915.9
45.51	896.0	915.6
45.52	896.0	915.3
45.53	907.0	915.0
45.54	914.0	914.7
45.55	897.0	914.4
45.56	913.0	914.1
45.57	907.0	913.8
45.58	910.0	913.5
45.59	892.0	913.2
45.6	901.0	912.9
45.61	923.0	912.6
45.62	918.0	912.3
45.63	890.0	912.0
45.64	882.0	911.7
45.65	895.0	911.4
45.66	882.0	911.1
45.67	877.0	910.8
45.68	915.0	910.5
45.69	949.0	910.2
45.7	913.0	909.9
45.71	889.0	909.6
45.72	897.0	909.3
45.73	904.0	909.0
45.74	898.0	908.7
45.75	921.0	908.4
45.76	926.0	908.1
45.77	926.0	907.8
45.78	896.0	907.5
45.79	873.0	907.2
45.8	897.0	906.9
45.81	892.0	906.6
45.82	874.0	906.3
45.83	859.0	906.0
45.84	881.0	905.7
45.85	908.0	905.4
45.86	899.0	905.1
45.87	901.0	904.8
45.88	881.0	904.5
45.89	889.0	904.1
45.9	925.0	903.8
45.91	897.0	903.5
45.92	895.0	903.2
45.93	924.0	902.9
45.94	936.0	902.6
45.95	907.0	902.3
45.96	905.0	902.0
45.97	909.0	901.7
45.98	908.0	901.4
45.99	897.0	901.1
46.0	914.0	900.8
46.01	913.0	900.5
46.02	890.0	900.2
46.03	859.0	899.9
46.04	863.0	899.6
46.05	890.0	899.3
46.06	919.0	899.0
46.07	908.0	898.7
46.08	879.0	898.4
46.09	896.0	898.1
46.1	892.0	897.7
46.11	901.0	897.4
46.12	901.0	897.1
46.13	880.0	896.8
46.14	889.0	896.5
46.15	902.0	896.2
46.16	908.0	895.9
46.17	899.0	895.6
46.18	890.0	895.3
46.19	896.0	895.0
46.2	877.0	894.7
46.21	886.0	894.4
46.22	885.0	894.1
46.23	889.0	893.8
46.24	883.0	893.5
46.25	901.0	893.2
46.26	907.0	892.9
46.27	902.0	892.5
46.28	899.0	892.2
46.29	889.0	891.9
46.3	906.0	891.6
46.31	895.0	891.3
46.32	885.0	891.0
46.33	892.0	890.7
46.34	909.0	890.4
46.35	923.0	890.1
46.36	899.0	889.8
46.37	872.0	889.5
46.38	860.0	889.2
46.39	878.0	888.9
46.4	900.0	888.6
46.41	887.0	888.3
46.42	898.0	887.9
46.43	912.0	887.6
46.44	917.0	887.3
46.45	898.0	887.0
46.46	890.0	886.7
46.47	891.0	886.4
46.48	876.0	886.1
46.49	867.0	885.8
46.5	869.0	885.5
46.51	896.0	885.2
46.52	912.0	884.9
46.53	928.0	884.6
46.54	922.0	884.3
46.55	915.0	884.0
46.56	910.0	883.6
46.57	920.0	883.3
46.58	879.0	883.0
46.59	857.0	882.7
46.6	902.0	882.4
46.61	889.0	882.1
46.62	875.0	881.8
46.63	892.0	881.5
46.64	922.0	881.2
46.65	930.0	880.9
46.66	926.0	880.6
46.67	903.0	880.3
46.68	872.0	880.0
46.69	881.0	879.6
46.7	898.0	879.3
46.71	888.0	879.0
46.72	860.0	878.7
46.73	868.0	878.4
46.74	885.0	878.1
46.75	879.0	877.8
46.76	880.0	877.5
46.77	885.0	877.2
46.78	900.0	876.9
46.79	911.0	876.6
46.8	893.0	876.3
46.81	875.0	876.0
46.82	859.0	875.6
46.83	903.0	875.3
46.84	910.0	875.0
46.85	918.0	874.7
46.86	907.0	874.4
46.87	891.0	874.1
46.88	883.0	873.8
46.89	860.0	873.5
46.9	866.0	873.2
46.91	883.0	872.9
46.92	906.0	872.6
46.93	914.0	872.3
46.94	894.0	872.0
46.95	867.0	871.6
46.96	880.0	871.3
46.97	888.0	871.0
46.98	876.0	870.7
46.99	896.0	870.4
47.0	909.0	870.1
47.01	905.0	869.8
47.02	867.0	869.5
47.03	889.0	869.2
47.04	914.0	868.9
47.05	879.0	868.6
47.06	873.0	868.3
47.07	902.0	868.0
47.08	912.0	867.6
47.09	892.0	867.3
47.1	916.0	867.0
47.11	931.0	866.7
47.12	905.0	866.4
47.13	875.0	866.1
47.14	867.0	865.8
47.15	892.0	865.5
47.16	928.0	865.2
47.17	927.0	864.9
47.18	941.0	864.6
47.19	955.0	864.3
47.2	930.0	864.0
47.21	893.0	863.6
47.22	888.0	863.3
47.23	918.0	863.0
47.24	911.0	862.7
47.25	919.0	862.4
47.26	917.0	862.1
47.27	907.0	861.8
47.28	897.0	861.5
47.29	895.0	861.2
47.3	924.0	860.9
47.31	926.0	860.6
47.32	919.0	860.3
47.33	939.0	860.0
47.34	939.0	859.7
47.35	939.0	859.3
47.36	933.0	859.0
47.37	941.0	858.7
47.38	925.0	858.4
47.39	930.0	858.1
47.4	934.0	857.8
47.41	913.0	857.5
47.42	939.0	857.2
47.43	929.0	856.9
47.44	902.0	856.6
47.45	954.0	856.3
47.46	974.0	856.0
47.47	945.0	855.7
47.48	919.0	855.4
47.49	914.0	855.1
47.5	922.0	854.8
47.51	917.0	854.4
47.52	913.0	854.1
47.53	928.0	853.8
47.54	960.0	853.5
47.55	986.0	853.2
47.56	993.0	852.9
47.57	991.0	852.6
47.58	978.0	852.3
47.59	958.0	852.0
47.6	951.0	851.7
47.61	969.0	851.4
47.62	983.0	851.1
47.63	969.0	850.8
47.64	970.0	850.5
47.65	978.0	850.2
47.66	995.0	849.9
47.67	1025.0	849.6
47.68	1018.0	849.2
47.69	1010.0	848.9
47.7	1012.0	848.6
47.71	990.0	848.3
47.72	982.0	848.0
47.73	1013.0	847.7
47.74	1009.0	847.4
47.75	995.0	847.1
47.76	1020.0	846.8
47.77	1050.0	846.5
47.78	1051.0	846.2
47.79	1026.0	845.9
47.8	1008.0	845.6
47.81	1019.0	845.3
47.82	1026.0	845.0
47.83	1050.0	844.7
47.84	1060.0	844.4
47.85	1059.0	844.1
47.86	1095.0	843.8
47.87	1111.0	843.5
47.88	1132.0	843.2
47.89	1135.0	842.9
47.9	1125.0	842.6
47.91	1115.0	842.2
47.92	1096.0	841.9
47.93	1123.0	841.6
47.94	1178.0	841.3
47.95	1187.0	841.0
47.96	1164.0	840.7
47.97	1172.0	840.4
47.98	1186.0	840.1
47.99	1197.0	839.8
48.0	1238.0	839.5
48.01	1228.0	839.2
48.02	1210.0	838.9
48.03	1234.0	838.6
48.04	1255.0	838.3
48.05	1293.0	838.0
48.06	1319.0	837.7
48.07	1327.0	837.4
48.08	1356.0	837.1
48.09	1347.0	836.8
48.1	1356.0	836.5
48.11	1394.0	836.2
48.12	1394.0	835.9
48.13	1416.0	835.6
48.14	1458.0	835.3
48.15	1457.0	835.0
48.16	1464.0	834.7
48.17	1464.0	834.4
48.18	1513.0	834.1
48.19	1582.0	833.8
48.2	1587.0	833.5
48.21	1605.0	833.2
48.22	1647.0	832.9
48.23	1687.0	832.6
48.24	1716.0	832.3
48.25	1758.0	832.0
48.26	1814.0	831.7
48.27	1791.0	831.4
48.28	1778.0	831.1
48.29	1818.0	830.8
48.3	1868.0	830.5
48.31	1898.0	830.2
48.32	1945.0	829.9
48.33	1994.0	829.6
48.34	2021.0	829.3
48.35	2037.0	829.0
48.36	2088.0	828.7
48.37	2123.0	828.4
48.38	2113.0	828.1
48.39	2143.0	827.8
48.4	2176.0	827.5
48.41	2230.0	827.2
48.42	2263.0	826.9
48.43	2245.0	826.6
48.44	2288.0	826.3
48.45	2347.0	826.0
48.46	2337.0	825.7
48.47	2356.0	825.4
48.48	2416.0	825.1
48.49	2408.0	824.8
48.5	2380.0	824.5
48.51	2399.0	824.2
48.52	2429.0	823.9
48.53	2467.0	823.6
48.54	2506.0	823.3
48.55	2510.0	823.0
48.56	2502.0	822.7
48.57	2520.0	822.4
48.58	2504.0	822.1
48.59	2444.0	821.8
48.6	2458.0	821.5
48.61	2452.0	821.3
48.62	2416.0	821.0
48.63	2427.0	820.7
48.64	2431.0	820.4
48.65	2420.0	820.1
48.66	2425.0	819.8
48.67	2390.0	819.5
48.68	2348.0	819.2
48.69	2342.0	818.9
48.7	2331.0	818.6
48.71	2310.0	818.3
48.72	2265.0	818.0
48.73	2218.0	817.7
48.74	2181.0	817.4
48.75	2152.0	817.1
48.76	2115.0	816.8
48.77	2112.0	816.5
48.78	2109.0	816.2
48.79	2050.0	815.9
48.8	2014.0	815.6
48.81	1946.0	815.4
48.82	1884.0	815.1
48.83	1912.0	814.8
48.84	1890.0	814.5
48.85	1804.0	814.2
48.86	1799.0	813.9
48.87	1795.0	813.6
48.88	1752.0	813.3
48.89	1759.0	813.0
48.9	1736.0	812.7
48.91	1662.0	812.4
48.92	1623.0	812.1
48.93	1648.0	811.8
48.94	1632.0	811.5
48.95	1581.0	811.3
48.96	1547.0	811.0
48.97	1493.0	810.7
48.98	1451.0	810.4
48.99	1451.0	810.1
49.0	1459.0	809.8
49.01	1445.0	809.5
49.02	1413.0	809.2
49.03	1377.0	808.9
49.04	1331.0	808.6
49.05	1311.0	808.3
49.06	1277.0	808.0
49.07	1253.0	807.8
49.08	1291.0	807.5
49.09	1294.0	807.2
49.1	1261.0	806.9
49.11	1219.0	806.6
49.12	1196.0	806.3
49.13	1202.0	806.0
49.14	1176.0	805.7
49.15	1148.0	805.4
49.16	1139.0	805.1
49.17	1151.0	804.9
49.18	1168.0	804.6
49.19	1154.0	804.3
49.2	1110.0	804.0
49.21	1075.0	803.7
49.22	1067.0	803.4
49.23	1063.0	803.1
49.24	1075.0	802.8
49.25	1066.0	802.5
49.26	1032.0	802.3
49.27	1018.0	802.0
49.28	1015.0	801.7
49.29	1032.0	801.4
49.3	1039.0	801.1
49.31	1028.0	800.8
49.32	1020.0	800.5
49.33	987.0	800.2
49.34	970.0	800.0
49.35	974.0	799.7
49.36	976.0	799.4
49.37	990.0	799.1
49.38	984.0	798.8
49.39	956.0	798.5
49.4	962.0	798.2
49.41	964.0	797.9
49.42	952.0	797.7
49.43	953.0	797.4
49.44	938.0	797.1
49.45	928.0	796.8
49.46	949.0	796.5
49.47	945.0	796.2
49.48	907.0	795.9
49.49	895.0	795.7
49.5	907.0	795.4
49.51	923.0	795.1
49.52	925.0	794.8
49.53	917.0	794.5
49.54	896.0	794.2
49.55	887.0	793.9
49.56	886.0	793.7
49.57	887.0	793.4
49.58	902.0	793.1
49.59	912.0	792.8
49.6	901.0	792.5
49.61	881.0	792.2
49.62	876.0	792.0
49.63	884.0	791.7
49.64	891.0	791.4
49.65	877.0	791.1
49.66	858.0	790.8
49.67	857.0	790.5
49.68	861.0	790.3
49.69	856.0	790.0
49.7	848.0	789.7
49.71	850.0	789.4
49.72	844.0	789.1
49.73	837.0	788.8
49.74	853.0	788.6
49.75	844.0	788.3
49.76	810.0	788.0
49.77	814.0	787.7
49.78	833.0	787.4
49.79	856.0	787.2
49.8	849.0	786.9
49.81	819.0	786.6
49.82	836.0	786.3
49.83	851.0	786.0
49.84	837.0	785.7
49.85	817.0	785.5
49.86	836.0	785.2
49.87	847.0	784.9
49.88	810.0	784.6
49.89	815.0	784.3
49.9	838.0	784.1
49.91	833.0	783.8
49.92	819.0	783.5
49.93	801.0	783.2
49.94	808.0	782.9
49.95	834.0	782.7
49.96	829.0	782.4
49.97	802.0	782.1
49.98	809.0	781.8
49.99	847.0	781.5
50.0	841.0	781.3
50.01	815.0	781.0
50.02	807.0	780.7
50.03	799.0	780.4
50.04	794.0	780.1
50.05	809.0	779.9
50.06	826.0	779.6
50.07	828.0	779.3
50.08	812.0	779.0
50.09	784.0	778.8
50.1	775.0	778.5
50.11	793.0	778.2
50.12	810.0	777.9
50.13	801.0	777.6
50.14	789.0	777.4
50.15	781.0	777.1
50.16	779.0	776.8
50.17	793.0	776.5
50.18	820.0	776.3
50.19	792.0	776.0
50.2	774.0	775.7
50.21	785.0	775.4
50.22	780.0	775.2
50.23	792.0	774.9
50.24	806.0	774.6
50.25	808.0	774.3
50.26	797.0	774.1
50.27	797.0	773.8
50.28	812.0	773.5
50.29	807.0	773.2
50.3	795.0	773.0
50.31	804.0	772.7
50.32	784.0	772.4
50.33	761.0	772.1
50.34	787.0	771.9
50.35	790.0	771.6
50.36	778.0	771.3
50.37	782.0	771.0
50.38	789.0	770.8
50.39	793.0	770.5
50.4	778.0	770.2
50.41	769.0	769.9
50.42	773.0	769.7
50.43	776.0	769.4
50.44	758.0	769.1
50.45	753.0	768.8
50.46	762.0	768.6
50.47	769.0	768.3
50.48	788.0	768.0
50.49	790.0	767.8
50.5	776.0	767.5
50.51	784.0	767.2
50.52	798.0	766.9
50.53	792.0	766.7
50.54	778.0	766.4
50.55	754.0	766.1
50.56	758.0	765.8
50.57	776.0	765.6
50.58	762.0	765.3
50.59	758.0	765.0
50.6	747.0	764.8
50.61	742.0	764.5
50.62	767.0	764.2
50.63	773.0	764.0
50.64	770.0	763.7
50.65	778.0	763.4
50.66	796.0	763.1
50.67	792.0	762.9
50.68	779.0	762.6
50.69	792.0	762.3
50.7	803.0	762.1
50.71	790.0	761.8
50.72	764.0	761.5
50.73	746.0	761.3
50.74	742.0	761.0
50.75	741.0	760.7
50.76	766.0	760.4
50.77	794.0	760.2
50.78	775.0	759.9
50.79	765.0	759.6
50.8	769.0	759.4
50.81	766.0	759.1
50.82	775.0	758.8
50.83	782.0	758.6
50.84	772.0	758.3
50.85	761.0	758.0
50.86	752.0	757.8
50.87	757.0	757.5
50.88	776.0	757.2
50.89	777.0	757.0
50.9	769.0	756.7
50.91	755.0	756.4
50.92	755.0	756.2
50.93	757.0	755.9
50.94	750.0	755.6
50.95	749.0	755.4
50.96	764.0	755.1
50.97	788.0	754.8
50.98	799.0	754.6
50.99	795.0	754.3
51.0	791.0	754.0
51.01	774.0	753.8
51.02	755.0	753.5
51.03	742.0	753.2
51.04	744.0	753.0
51.05	771.0	752.7
51.06	786.0	752.4
51.07	780.0	752.2
51.08	752.0	751.9
51.09	731.0	751.7
51.1	744.0	751.4
51.11	758.0	751.1
51.12	753.0	750.9
51.13	733.0	750.6
51.14	735.0	750.3
51.15	755.0	750.1
51.16	760.0	749.8
51.17	766.0	749.5
51.18	775.0	749.3
51.19	768.0	749.0
51.2	760.0	748.8
51.21	760.0	748.5
51.22	748.0	748.2
51.23	738.0	748.0
51.24	750.0	747.7
51.25	747.0	747.4
51.26	746.0	747.2
51.27	755.0	746.9
51.28	753.0	746.7
51.29	751.0	746.4
51.3	745.0	746.1
51.31	745.0	745.9
51.32	760.0	745.6
51.33	764.0	745.4
51.34	752.0	745.1
51.35	729.0	744.8
51.36	735.0	744.6
51.37	751.0	744.3
51.38	761.0	744.1
51.39	782.0	743.8
51.4	776.0	743.5
51.41	747.0	743.3
51.42	734.0	743.0
51.43	735.0	742.8
51.44	744.0	742.5
51.45	751.0	742.2
51.46	736.0	742.0
51.47	745.0	741.7
51.48	774.0	741.5
51.49	770.0	741.2
51.5	751.0	740.9
51.51	761.0	740.7
51.52	783.0	740.4
51.53	782.0	740.2
51.54	770.0	739.9
51.55	757.0	739.7
51.56	772.0	739.4
51.57	771.0	739.1
51.58	749.0	738.9
51.59	737.0	738.6
51.6	726.0	738.4
51.61	740.0	738.1
51.62	753.0	737.9
51.63	745.0	737.6
51.64	748.0	737.3
51.65	750.0	737.1
51.66	764.0	736.8
51.67	765.0	736.6
51.68	732.0	736.3
51.69	727.0	736.1
51.7	748.0	735.8
51.71	754.0	735.6
51.72	747.0	735.3
51.73	741.0	735.1
51.74	748.0	734.8
51.75	758.0	734.5
51.76	773.0	734.3
51.77	761.0	734.0
51.78	732.0	733.8
51.79	720.0	733.5
51.8	728.0	733.3
51.81	740.0	733.0
51.82	732.0	732.8
51.83	717.0	732.5
51.84	719.0	732.3
51.85	716.0	732.0
51.86	711.0	731.8
51.87	713.0	731.5
51.88	720.0	731.2
51.89	747.0	731.0
51.9	754.0	730.7
51.91	729.0	730.5
51.92	724.0	730.2
51.93	729.0	730.0
51.94	737.0	729.7
51.95	731.0	729.5
51.96	742.0	729.2
51.97	756.0	729.0
51.98	738.0	728.7
51.99	704.0	728.5
52.0	687.0	728.2
52.01	728.0	728.0
52.02	765.0	727.7
52.03	751.0	727.5
52.04	740.0	727.2
52.05	735.0	727.0
52.06	743.0	726.7
52.07	744.0	726.5
52.08	732.0	726.2
52.09	738.0	726.0
52.1	738.0	725.7
52.11	737.0	725.5
52.12	745.0	725.2
52.13	764.0	725.0
52.14	765.0	724.7
52.15	735.0	724.5
52.16	723.0	724.2
52.17	725.0	724.0
52.18	741.0	723.7
52.19	764.0	723.5
52.2	761.0	723.2
52.21	748.0	723.0
52.22	734.0	722.8
52.23	741.0	722.5
52.24	758.0	722.3
52.25	748.0	722.0
52.26	740.0	721.8
52.27	754.0	721.5
52.28	738.0	721.3
52.29	709.0	721.0
52.3	734.0	720.8
52.31	772.0	720.5
52.32	746.0	720.3
52.33	719.0	720.0
52.34	764.0	719.8
52.35	790.0	719.6
52.36	773.0	719.3
52.37	755.0	719.1
52.38	745.0	718.8
52.39	748.0	718.6
52.4	754.0	718.3
52.41	758.0	718.1
52.42	763.0	717.8
52.43	778.0	717.6
52.44	785.0	717.4
52.45	782.0	717.1
52.46	787.0	716.9
52.47	813.0	716.6
52.48	816.0	716.4
52.49	779.0	716.1
52.5	749.0	715.9
52.51	748.0	715.7
52.52	741.0	715.4
52.53	733.0	715.2
52.54	752.0	714.9
52.55	773.0	714.7
52.56	774.0	714.4
52.57	780.0	714.2
52.58	770.0	714.0
52.59	764.0	713.7
52.6	777.0	713.5
52.61	767.0	713.2
52.62	751.0	713.0
52.63	756.0	712.8
52.64	737.0	712.5
52.65	736.0	712.3
52.66	782.0	712.0
52.67	807.0	711.8
52.68	777.0	711.6
52.69	741.0	711.3
52.7	749.0	711.1
52.71	778.0	710.8
52.72	791.0	710.6
52.73	800.0	710.4
52.74	817.0	710.1
52.75	799.0	709.9
52.76	759.0	709.6
52.77	768.0	709.4
52.78	806.0	709.2
52.79	798.0	708.9
52.8	778.0	708.7
52.81	782.0	708.4
52.82	776.0	708.2
52.83	781.0	708.0
52.84	780.0	707.7
52.85	738.0	707.5
52.86	739.0	707.3
52.87	771.0	707.0
52.88	781.0	706.8
52.89	787.0	706.5
52.9	791.0	706.3
52.91	781.0	706.1
52.92	767.0	705.8
52.93	760.0	705.6
52.94	766.0	705.4
52.95	765.0	705.1
52.96	760.0	704.9
52.97	758.0	704.7
52.98	769.0	704.4
52.99	762.0	704.2
53.0	746.0	704.0
53.01	751.0	703.7
53.02	764.0	703.5
53.03	763.0	703.3
53.04	759.0	703.0
53.05	790.0	702.8
53.06	828.0	702.6
53.07	821.0	702.3
53.08	805.0	702.1
53.09	818.0	701.9
53.1	837.0	701.6
53.11	815.0	701.4
53.12	785.0	701.2
53.13	804.0	700.9
53.14	842.0	700.7
53.15	826.0	700.5
53.16	800.0	700.2
53.17	811.0	700.0
53.18	816.0	699.8
53.19	808.0	699.5
53.2	814.0	699.3
53.21	814.0	699.1
53.22	812.0	698.8
53.23	821.0	698.6
53.24	814.0	698.4
53.25	782.0	698.1
53.26	796.0	697.9
53.27	829.0	697.7
53.28	830.0	697.5
53.29	804.0	697.2
53.3	802.0	697.0
53.31	832.0	696.8
53.32	840.0	696.5
53.33	825.0	696.3
53.34	831.0	696.1
53.35	848.0	695.8
53.36	829.0	695.6
53.37	819.0	695.4
53.38	842.0	695.2
53.39	843.0	694.9
53.4	811.0	694.7
53.41	808.0	694.5
53.42	839.0	694.2
53.43	874.0	694.0
53.44	868.0	693.8
53.45	856.0	693.6
53.46	836.0	693.3
53.47	837.0	693.1
53.48	861.0	692.9
53.49	877.0	692.7
53.5	872.0	692.4
53.51	876.0	692.2
53.52	877.0	692.0
53.53	883.0	691.8
53.54	903.0	691.5
53.55	908.0	691.3
53.56	897.0	691.1
53.57	905.0	690.9
53.58	931.0	690.6
53.59	923.0	690.4
53.6	912.0	690.2
53.61	905.0	690.0
53.62	911.0	689.7
53.63	912.0	689.5
53.64	914.0	689.3
53.65	894.0	689.1
53.66	925.0	688.8
53.67	948.0	688.6
53.68	951.0	688.4
53.69	960.0	688.2
53.7	957.0	687.9
53.71	951.0	687.7
53.72	948.0	687.5
53.73	945.0	687.3
53.74	968.0	687.0
53.75	996.0	686.8
53.76	1010.0	686.6
53.77	1012.0	686.4
53.78	1022.0	686.2
53.79	1023.0	685.9
53.8	1008.0	685.7
53.81	992.0	685.5
53.82	1004.0	685.3
53.83	1021.0	685.1
53.84	1056.0	684.8
53.85	1080.0	684.6
53.86	1093.0	684.4
53.87	1104.0	684.2
53.88	1115.0	684.0
53.89	1112.0	683.7
53.9	1089.0	683.5
53.91	1100.0	683.3
53.92	1117.0	683.1
53.93	1130.0	682.9
53.94	1148.0	682.6
53.95	1154.0	682.4
53.96	1139.0	682.2
53.97	1179.0	682.0
53.98	1210.0	681.8
53.99	1200.0	681.5
54.0	1211.0	681.3
54.01	1225.0	681.1
54.02	1255.0	680.9
54.03	1293.0	680.7
54.04	1314.0	680.5
54.05	1331.0	680.2
54.06	1331.0	680.0
54.07	1325.0	679.8
54.08	1321.0	679.6
54.09	1324.0	679.4
54.1	1347.0	679.2
54.11	1387.0	678.9
54.12	1390.0	678.7
54.13	1412.0	678.5
54.14	1439.0	678.3
54.15	1462.0	678.1
54.16	1486.0	677.9
54.17	1493.0	677.7
54.18	1501.0	677.4
54.19	1543.0	677.2
54.2	1554.0	677.0
54.21	1531.0	676.8
54.22	1517.0	676.6
54.23	1534.0	676.4
54.24	1579.0	676.2
54.25	1584.0	675.9
54.26	1652.0	675.7
54.27	1711.0	675.5
54.28	1697.0	675.3
54.29	1697.0	675.1
54.3	1677.0	674.9
54.31	1661.0	674.7
54.32	1691.0	674.5
54.33	1719.0	674.2
54.34	1730.0	674.0
54.35	1713.0	673.8
54.36	1735.0	673.6
54.37	1790.0	673.4
54.38	1786.0	673.2
54.39	1763.0	673.0
54.4	1781.0	672.8
54.41	1828.0	672.6
54.42	1807.0	672.3
54.43	1780.0	672.1
54.44	1801.0	671.9
54.45	1823.0	671.7
54.46	1812.0	671.5
54.47	1800.0	671.3
54.48	1804.0	671.1
54.49	1810.0	670.9
54.5	1806.0	670.7
54.51	1811.0	670.5
54.52	1805.0	670.3
54.53	1815.0	670.0
54.54	1832.0	669.8
54.55	1805.0	669.6
54.56	1802.0	669.4
54.57	1820.0	669.2
54.58	1828.0	669.0
54.59	1834.0	668.8
54.6	1822.0	668.6
54.61	1800.0	668.4
54.62	1805.0	668.2
54.63	1796.0	668.0
54.64	1759.0	667.8
54.65	1754.0	667.6
54.66	1757.0	667.4
54.67	1729.0	667.1
54.68	1724.0	666.9
54.69	1699.0	666.7
54.7	1695.0	666.5
54.71	1684.0	666.3
54.72	1692.0	666.1
54.73	1653.0	665.9
54.74	1631.0	665.7
54.75	1659.0	665.5
54.76	1650.0	665.3
54.77	1602.0	665.1
54.78	1592.0	664.9
54.79	1608.0	664.7
54.8	1597.0	664.5
54.81	1583.0	664.3
54.82	1597.0	664.1
54.83	1583.0	663.9
54.84	1583.0	663.7
54.85	1550.0	663.5
54.86	1516.0	663.3
54.87	1527.0	663.1
54.88	1560.0	662.9
54.89	1568.0	662.7
54.9	1549.0	662.5
54.91	1507.0	662.3
54.92	1492.0	662.1
54.93	1485.0	661.9
54.94	1469.0	661.7
54.95	1466.0	661.5
54.96	1465.0	661.3
54.97	1474.0	661.1
54.98	1494.0	660.9
54.99	1488.0	660.7
55.0	1459.0	660.5
55.01	1462.0	660.3
55.02	1488.0	660.1
55.03	1513.0	659.9
55.04	1474.0	659.7
55.05	1433.0	659.5
55.06	1437.0	659.3
55.07	1446.0	659.1
55.08	1419.0	658.9
55.09	1400.0	658.7
55.1	1439.0	658.5
55.11	1446.0	658.3
55.12	1432.0	658.1
55.13	1418.0	657.9
55.14	1442.0	657.7
55.15	1455.0	657.5
55.16	1471.0	657.3
55.17	1487.0	657.1
55.18	1490.0	656.9
55.19	1481.0	656.7
55.2	1462.0	656.5
55.21	1476.0	656.3
55.22	1502.0	656.1
55.23	1501.0	655.9
55.24	1510.0	655.7
55.25	1550.0	655.5
55.26	1561.0	655.3
55.27	1537.0	655.1
55.28	1537.0	654.9
55.29	1529.0	654.8
55.3	1525.0	654.6
55.31	1570.0	654.4
55.32	1651.0	654.2
55.33	1645.0	654.0
55.34	1593.0	653.8
55.35	1573.0	653.6
55.36	1600.0	653.4
55.37	1638.0	653.2
55.38	1656.0	653.0
55.39	1658.0	652.8
55.4	1647.0	652.6
55.41	1650.0	652.4
55.42	1681.0	652.2
55.43	1710.0	652.1
55.44	1720.0	651.9
55.45	1702.0	651.7
55.46	1713.0	651.5
55.47	1747.0	651.3
55.48	1755.0	651.1
55.49	1742.0	650.9
55.5	1741.0	650.7
55.51	1746.0	650.5
55.52	1745.0	650.3
55.53	1775.0	650.2
55.54	1778.0	650.0
55.55	1765.0	649.8
55.56	1749.0	649.6
55.57	1746.0	649.4
55.58	1753.0	649.2
55.59	1777.0	649.0
55.6	1817.0	648.8
55.61	1810.0	648.6
55.62	1776.0	648.5
55.63	1742.0	648.3
55.64	1716.0	648.1
55.65	1737.0	647.9
55.66	1724.0	647.7
55.67	1706.0	647.5
55.68	1696.0	647.3
55.69	1653.0	647.1
55.7	1643.0	647.0
55.71	1670.0	646.8
55.72	1660.0	646.6
55.73	1588.0	646.4
55.74	1611.0	646.2
55.75	1647.0	646.0
55.76	1605.0	645.8
55.77	1593.0	645.7
55.78	1582.0	645.5
55.79	1607.0	645.3
55.8	1616.0	645.1
55.81	1566.0	644.9
55.82	1500.0	644.7
55.83	1470.0	644.6
55.84	1462.0	644.4
55.85	1429.0	644.2
55.86	1411.0	644.0
55.87	1418.0	643.8
55.88	1417.0	643.6
55.89	1381.0	643.5
55.9	1326.0	643.3
55.91	1313.0	643.1
55.92	1303.0	642.9
55.93	1283.0	642.7
55.94	1270.0	642.6
55.95	1267.0	642.4
55.96	1266.0	642.2
55.97	1253.0	642.0
55.98	1207.0	641.8
55.99	1188.0	641.6
56.0	1202.0	641.5
56.01	1201.0	641.3
56.02	1166.0	641.1
56.03	1168.0	640.9
56.04	1178.0	640.7
56.05	1128.0	640.6
56.06	1119.0	640.4
56.07	1134.0	640.2
56.08	1112.0	640.0
56.09	1090.0	639.9
56.1	1057.0	639.7
56.11	1023.0	639.5
56.12	1016.0	639.3
56.13	997.0	639.1
56.14	1002.0	639.0
56.15	997.0	638.8
56.16	1007.0	638.6
56.17	998.0	638.4
56.18	962.0	638.3
56.19	934.0	638.1
56.2	970.0	637.9
56.21	963.0	637.7
56.22	941.0	637.6
56.23	921.0	637.4
56.24	936.0	637.2
56.25	948.0	637.0
56.26	932.0	636.8
56.27	902.0	636.7
56.28	858.0	636.5
56.29	888.0	636.3
56.3	893.0	636.2
56.31	865.0	636.0
56.32	855.0	635.8
56.33	857.0	635.6
56.34	860.0	635.5
56.35	840.0	635.3
56.36	833.0	635.1
56.37	834.0	634.9
56.38	858.0	634.8
56.39	879.0	634.6
56.4	856.0	634.4
56.41	822.0	634.2
56.42	794.0	634.1
56.43	789.0	633.9
56.44	801.0	633.7
56.45	822.0	633.6
56.46	817.0	633.4
56.47	801.0	633.2
56.48	819.0	633.0
56.49	815.0	632.9
56.5	832.0	632.7
56.51	835.0	632.5
56.52	831.0	632.4
56.53	814.0	632.2
56.54	809.0	632.0
56.55	799.0	631.9
56.56	764.0	631.7
56.57	767.0	631.5
56.58	785.0	631.4
56.59	792.0	631.2
56.6	776.0	631.0
56.61	746.0	630.8
56.62	741.0	630.7
56.63	762.0	630.5
56.64	762.0	630.3
56.65	759.0	630.2
56.66	767.0	630.0
56.67	786.0	629.8
56.68	756.0	629.7
56.69	750.0	629.5
56.7	765.0	629.3
56.71	746.0	629.2
56.72	724.0	629.0
56.73	734.0	628.8
56.74	758.0	628.7
56.75	775.0	628.5
56.76	773.0	628.3
56.77	778.0	628.2
56.78	752.0	628.0
56.79	736.0	627.8
56.8	732.0	627.7
56.81	750.0	627.5
56.82	777.0	627.4
56.83	758.0	627.2
56.84	740.0	627.0
56.85	738.0	626.9
56.86	726.0	626.7
56.87	713.0	626.5
56.88	719.0	626.4
56.89	750.0	626.2
56.9	754.0	626.0
56.91	726.0	625.9
56.92	707.0	625.7
56.93	723.0	625.6
56.94	743.0	625.4
56.95	720.0	625.2
56.96	689.0	625.1
56.97	723.0	624.9
56.98	732.0	624.8
56.99	705.0	624.6
57.0	724.0	624.4
57.01	710.0	624.3
57.02	712.0	624.1
57.03	737.0	624.0
57.04	734.0	623.8
57.05	698.0	623.6
57.06	677.0	623.5
57.07	696.0	623.3
57.08	719.0	623.2
57.09	725.0	623.0
57.1	730.0	622.8
57.11	735.0	622.7
57.12	721.0	622.5
57.13	691.0	622.4
57.14	681.0	622.2
57.15	692.0	622.0
57.16	702.0	621.9
57.17	707.0	621.7
57.18	710.0	621.6
57.19	714.0	621.4
57.2	719.0	621.3
57.21	756.0	621.1
57.22	744.0	620.9
57.23	736.0	620.8
57.24	714.0	620.6
57.25	702.0	620.5
57.26	701.0	620.3
57.27	690.0	620.2
57.28	668.0	620.0
57.29	682.0	619.8
57.3	689.0	619.7
57.31	684.0	619.5
57.32	673.0	619.4
57.33	713.0	619.2
57.34	717.0	619.1
57.35	717.0	618.9
57.36	696.0	618.8
57.37	695.0	618.6
57.38	703.0	618.5
57.39	695.0	618.3
57.4	698.0	618.1
57.41	693.0	618.0
57.42	710.0	617.8
57.43	714.0	617.7
57.44	692.0	617.5
57.45	661.0	617.4
57.46	653.0	617.2
57.47	677.0	617.1
57.48	691.0	616.9
57.49	696.0	616.8
57.5	717.0	616.6
57.51	734.0	616.5
57.52	718.0	616.3
57.53	674.0	616.2
57.54	678.0	616.0
57.55	663.0	615.9
57.56	664.0	615.7
57.57	673.0	615.6
57.58	707.0	615.4
57.59	688.0	615.3
57.6	683.0	615.1
57.61	688.0	615.0
57.62	686.0	614.8
57.63	669.0	614.7
57.64	667.0	614.5
57.65	661.0	614.4
57.66	669.0	614.2
57.67	666.0	614.1
57.68	661.0	613.9
57.69	677.0	613.8
57.7	675.0	613.6
57.71	669.0	613.5
57.72	672.0	613.3
57.73	675.0	613.2
57.74	653.0	613.0
57.75	656.0	612.9
57.76	677.0	612.7
57.77	660.0	612.6
57.78	636.0	612.4
57.79	624.0	612.3
57.8	625.0	612.1
57.81	645.0	612.0
57.82	647.0	611.9
57.83	616.0	611.7
57.84	608.0	611.6
57.85	622.0	611.4
57.86	663.0	611.3
57.87	668.0	611.1
57.88	655.0	611.0
57.89	646.0	610.8
57.9	649.0	610.7
57.91	667.0	610.5
57.92	665.0	610.4
57.93	658.0	610.3
57.94	644.0	610.1
57.95	645.0	610.0
57.96	649.0	609.8
57.97	648.0	609.7
57.98	639.0	609.5
57.99	646.0	609.4
58.0	636.0	609.2
58.01	636.0	609.1
58.02	642.0	609.0
58.03	636.0	608.8
58.04	649.0	608.7
58.05	632.0	608.5
58.06	643.0	608.4
58.07	642.0	608.2
58.08	650.0	608.1
58.09	617.0	608.0
58.1	620.0	607.8
58.11	652.0	607.7
58.12	637.0	607.5
58.13	634.0	607.4
58.14	621.0	607.3
58.15	623.0	607.1
58.16	633.0	607.0
58.17	646.0	606.8
58.18	648.0	606.7
58.19	650.0	606.5
58.2	647.0	606.4
58.21	654.0	606.3
58.22	655.0	606.1
58.23	637.0	606.0
58.24	628.0	605.8
58.25	611.0	605.7
58.26	609.0	605.6
58.27	624.0	605.4
58.28	632.0	605.3
58.29	634.0	605.2
58.3	648.0	605.0
58.31	616.0	604.9
58.32	634.0	604.7
58.33	609.0	604.6
58.34	577.0	604.5
58.35	600.0	604.3
58.36	600.0	604.2
58.37	620.0	604.0
58.38	623.0	603.9
58.39	622.0	603.8
58.4	637.0	603.6
58.41	622.0	603.5
58.42	620.0	603.4
58.43	625.0	603.2
58.44	637.0	603.1
58.45	639.0	602.9
58.46	614.0	602.8
58.47	614.0	602.7
58.48	609.0	602.5
58.49	629.0	602.4
58.5	639.0	602.3
58.51	633.0	602.1
58.52	625.0	602.0
58.53	634.0	601.9
58.54	635.0	601.7
58.55	609.0	601.6
58.56	579.0	601.5
58.57	610.0	601.3
58.58	630.0	601.2
58.59	607.0	601.1
58.6	580.0	600.9
58.61	595.0	600.8
58.62	624.0	600.7
58.63	645.0	600.5
58.64	637.0	600.4
58.65	623.0	600.3
58.66	645.0	600.1
58.67	658.0	600.0
58.68	645.0	599.9
58.69	643.0	599.7
58.7	629.0	599.6
58.71	622.0	599.5
58.72	631.0	599.3
58.73	633.0	599.2
58.74	626.0	599.1
58.75	613.0	598.9
58.76	625.0	598.8
58.77	639.0	598.7
58.78	654.0	598.5
58.79	629.0	598.4
58.8	609.0	598.3
58.81	615.0	598.1
58.82	626.0	598.0
58.83	625.0	597.9
58.84	653.0	597.7
58.85	630.0	597.6
58.86	628.0	597.5
58.87	642.0	597.4
58.88	640.0	597.2
58.89	617.0	597.1
58.9	609.0	597.0
58.91	609.0	596.8
58.92	633.0	596.7
58.93	592.0	596.6
58.94	581.0	596.4
58.95	607.0	596.3
58.96	619.0	596.2
58.97	623.0	596.1
58.98	633.0	595.9
58.99	622.0	595.8
59.0	600.0	595.7
59.01	596.0	595.5
59.02	593.0	595.4
59.03	609.0	595.3
59.04	605.0	595.2
59.05	624.0	595.0
59.06	638.0	594.9
59.07	611.0	594.8
59.08	615.0	594.7
59.09	603.0	594.5
59.1	612.0	594.4
59.11	603.0	594.3
59.12	603.0	594.1
59.13	597.0	594.0
59.14	597.0	593.9
59.15	619.0	593.8
59.16	636.0	593.6
59.17	631.0	593.5
59.18	634.0	593.4
59.19	636.0	593.3
59.2	622.0	593.1
59.21	616.0	593.0
59.22	634.0	592.9
59.23	614.0	592.8
59.24	601.0	592.6
59.25	590.0	592.5
59.26	608.0	592.4
59.27	619.0	592.3
59.28	629.0	592.1
59.29	632.0	592.0
59.3	612.0	591.9
59.31	602.0	591.8
59.32	613.0	591.6
59.33	603.0	591.5
59.34	619.0	591.4
59.35	630.0	591.3
59.36	607.0	591.1
59.37	595.0	591.0
59.38	626.0	590.9
59.39	625.0	590.8
59.4	619.0	590.7
59.41	630.0	590.5
59.42	601.0	590.4
59.43	580.0	590.3
59.44	588.0	590.2
59.45	576.0	590.0
59.46	590.0	589.9
59.47	610.0	589.8
59.48	601.0	589.7
59.49	584.0	589.6
59.5	603.0	589.4
59.51	570.0	589.3
59.52	576.0	589.2
59.53	603.0	589.1
59.54	596.0	588.9
59.55	589.0	588.8
59.56	589.0	588.7
59.57	581.0	588.6
59.58	578.0	588.5
59.59	588.0	588.3
59.6	620.0	588.2
59.61	621.0	588.1
59.62	620.0	588.0
59.63	617.0	587.9
59.64	588.0	587.7
59.65	597.0	587.6
59.66	626.0	587.5
59.67	620.0	587.4
59.68	623.0	587.3
59.69	622.0	587.1
59.7	604.0	587.0
59.71	594.0	586.9
59.72	618.0	586.8
59.73	604.0	586.7
59.74	617.0	586.5
59.75	613.0	586.4
59.76	584.0	586.3
59.77	595.0	586.2
59.78	601.0	586.1
59.79	596.0	586.0
59.8	578.0	585.8
59.81	581.0	585.7
59.82	576.0	585.6
59.83	562.0	585.5
59.84	560.0	585.4
59.85	588.0	585.3
59.86	595.0	585.1
59.87	594.0	585.0
59.88	578.0	584.9
59.89	601.0	584.8
59.9	595.0	584.7
59.91	573.0	584.6
59.92	597.0	584.4
59.93	609.0	584.3
59.94	596.0	584.2
59.95	585.0	584.1
59.96	592.0	584.0
59.97	598.0	583.9
59.98	561.0	583.7
59.99	583.0	583.6
60.0	605.0	583.5
60.01	580.0	583.4
60.02	563.0	583.3
60.03	578.0	583.2
60.04	599.0	583.0
60.05	604.0	582.9
60.06	585.0	582.8
60.07	580.0	582.7
60.08	595.0	582.6
60.09	609.0	582.5
60.1	593.0	582.4
60.11	576.0	582.2
60.12	601.0	582.1
60.13	592.0	582.0
60.14	601.0	581.9
60.15	608.0	581.8
60.16	624.0	581.7
60.17	613.0	581.6
60.18	620.0	581.4
60.19	597.0	581.3
60.2	588.0	581.2
60.21	599.0	581.1
60.22	600.0	581.0
60.23	605.0	580.9
60.24	613.0	580.8
60.25	629.0	580.7
60.26	611.0	580.5
60.27	606.0	580.4
60.28	614.0	580.3
60.29	605.0	580.2
60.3	595.0	580.1
60.31	610.0	580.0
60.32	586.0	579.9
60.33	587.0	579.8
60.34	574.0	579.6
60.35	602.0	579.5
60.36	613.0	579.4
60.37	581.0	579.3
60.38	586.0	579.2
60.39	601.0	579.1
60.4	599.0	579.0
60.41	609.0	578.9
60.42	600.0	578.8
60.43	587.0	578.7
60.44	606.0	578.5
60.45	598.0	578.4
60.46	602.0	578.3
60.47	614.0	578.2
60.48	594.0	578.1
60.49	570.0	578.0
60.5	571.0	577.9
60.51	592.0	577.8
60.52	602.0	577.7
60.53	594.0	577.6
60.54	590.0	577.4
60.55	579.0	577.3
60.56	582.0	577.2
60.57	591.0	577.1
60.58	597.0	577.0
60.59	595.0	576.9
60.6	616.0	576.8
60.61	605.0	576.7
60.62	604.0	576.6
60.63	604.0	576.5
60.64	614.0	576.4
60.65	613.0	576.2
60.66	599.0	576.1
60.67	590.0	576.0
60.68	598.0	575.9
60.69	610.0	575.8
60.7	609.0	575.7
60.71	595.0	575.6
60.72	579.0	575.5
60.73	585.0	575.4
60.74	589.0	575.3
60.75	606.0	575.2
60.76	597.0	575.1
60.77	605.0	575.0
60.78	614.0	574.8
60.79	606.0	574.7
60.8	588.0	574.6
60.81	590.0	574.5
60.82	593.0	574.4
60.83	586.0	574.3
60.84	569.0	574.2
60.85	589.0	574.1
60.86	606.0	574.0
60.87	624.0	573.9
60.88	609.0	573.8
60.89	592.0	573.7
60.9	622.0	573.6
60.91	611.0	573.5
60.92	596.0	573.4
60.93	603.0	573.3
60.94	585.0	573.1
60.95	596.0	573.0
60.96	612.0	572.9
60.97	600.0	572.8
60.98	601.0	572.7
60.99	624.0	572.6
61.0	619.0	572.5
61.01	592.0	572.4
61.02	590.0	572.3
61.03	587.0	572.2
61.04	602.0	572.1
61.05	599.0	572.0
61.06	600.0	571.9
61.07	598.0	571.8
61.08	604.0	571.7
61.09	613.0	571.6
61.1	631.0	571.5
61.11	604.0	571.4
61.12	598.0	571.3
61.13	588.0	571.2
61.14	614.0	571.1
61.15	638.0	571.0
61.16	598.0	570.9
61.17	613.0	570.8
61.18	622.0	570.6
61.19	593.0	570.5
61.2	621.0	570.4
61.21	598.0	570.3
61.22	589.0	570.2
61.23	565.0	570.1
61.24	598.0	570.0
61.25	621.0	569.9
61.26	632.0	569.8
61.27	622.0	569.7
61.28	617.0	569.6
61.29	608.0	569.5
61.3	616.0	569.4
61.31	620.0	569.3
61.32	613.0	569.2
61.33	583.0	569.1
61.34	586.0	569.0
61.35	622.0	568.9
61.36	633.0	568.8
61.37	613.0	568.7
61.38	637.0	568.6
61.39	644.0	568.5
61.4	614.0	568.4
61.41	616.0	568.3
61.42	619.0	568.2
61.43	606.0	568.1
61.44	610.0	568.0
61.45	627.0	567.9
61.46	640.0	567.8
61.47	629.0	567.7
61.48	620.0	567.6
61.49	613.0	567.5
61.5	624.0	567.4
61.51	630.0	567.3
61.52	613.0	567.2
61.53	613.0	567.1
61.54	620.0	567.0
61.55	605.0	566.9
61.56	591.0	566.8
61.57	635.0	566.7
61.58	646.0	566.6
61.59	614.0	566.5
61.6	601.0	566.4
61.61	626.0	566.3
61.62	646.0	566.2
61.63	634.0	566.1
61.64	642.0	566.0
61.65	661.0	565.9
61.66	623.0	565.8
61.67	626.0	565.7
61.68	604.0	565.6
61.69	613.0	565.5
61.7	649.0	565.4
61.71	634.0	565.3
61.72	626.0	565.2
61.73	625.0	565.1
61.74	622.0	565.0
61.75	627.0	564.9
61.76	655.0	564.8
61.77	665.0	564.7
61.78	648.0	564.6
61.79	659.0	564.5
61.8	643.0	564.4
61.81	662.0	564.3
61.82	662.0	564.2
61.83	626.0	564.1
61.84	636.0	564.0
61.85	637.0	563.9
61.86	654.0	563.8
61.87	692.0	563.7
61.88	699.0	563.6
61.89	696.0	563.5
61.9	664.0	563.5
61.91	644.0	563.4
61.92	652.0	563.3
61.93	659.0	563.2
61.94	638.0	563.1
61.95	630.0	563.0
61.96	656.0	562.9
61.97	684.0	562.8
61.98	689.0	562.7
61.99	679.0	562.6
62.0	668.0	562.5
62.01	668.0	562.4
62.02	672.0	562.3
62.03	676.0	562.2
62.04	701.0	562.1
62.05	701.0	562.0
62.06	698.0	561.9
62.07	718.0	561.8
62.08	727.0	561.7
62.09	697.0	561.6
62.1	716.0	561.5
62.11	719.0	561.4
62.12	688.0	561.3
62.13	702.0	561.2
62.14	708.0	561.1
62.15	720.0	561.0
62.16	733.0	561.0
62.17	729.0	560.9
62.18	746.0	560.8
62.19	740.0	560.7
62.2	756.0	560.6
62.21	772.0	560.5
62.22	738.0	560.4
62.23	750.0	560.3
62.24	737.0	560.2
62.25	748.0	560.1
62.26	766.0	560.0
62.27	780.0	559.9
62.28	795.0	559.8
62.29	809.0	559.7
62.3	806.0	559.6
62.31	789.0	559.5
62.32	807.0	559.4
62.33	831.0	559.3
62.34	823.0	559.3
62.35	820.0	559.2
62.36	832.0	559.1
62.37	836.0	559.0
62.38	847.0	558.9
62.39	840.0	558.8
62.4	842.0	558.7
62.41	859.0	558.6
62.42	888.0	558.5
62.43	860.0	558.4
62.44	855.0	558.3
62.45	848.0	558.2
62.46	833.0	558.1
62.47	885.0	558.0
62.48	883.0	557.9
62.49	891.0	557.9
62.5	899.0	557.8
62.51	931.0	557.7
62.52	948.0	557.6
62.53	938.0	557.5
62.54	952.0	557.4
62.55	948.0	557.3
62.56	941.0	557.2
62.57	967.0	557.1
62.58	1000.0	557.0
62.59	1024.0	556.9
62.6	977.0	556.8
62.61	956.0	556.7
62.62	985.0	556.6
62.63	1021.0	556.6
62.64	1050.0	556.5
62.65	1037.0	556.4
62.66	1055.0	556.3
62.67	1020.0	556.2
62.68	1061.0	556.1
62.69	1089.0	556.0
62.7	1079.0	555.9
62.71	1059.0	555.8
62.72	1045.0	555.7
62.73	1096.0	555.6
62.74	1091.0	555.5
62.75	1168.0	555.5
62.76	1132.0	555.4
62.77	1152.0	555.3
62.78	1130.0	555.2
62.79	1143.0	555.1
62.8	1139.0	555.0
62.81	1148.0	554.9
62.82	1199.0	554.8
62.83	1192.0	554.7
62.84	1108.0	554.6
62.85	1151.0	554.5
62.86	1211.0	554.5
62.87	1247.0	554.4
62.88	1275.0	554.3
62.89	1220.0	554.2
62.9	1193.0	554.1
62.91	1254.0	554.0
62.92	1238.0	553.9
62.93	1260.0	553.8
62.94	1249.0	553.7
62.95	1252.0	553.6
62.96	1240.0	553.5
62.97	1285.0	553.5
62.98	1330.0	553.4
62.99	1317.0	553.3
63.0	1318.0	553.2
63.01	1359.0	553.1
63.02	1357.0	553.0
63.03	1337.0	552.9
63.04	1328.0	552.8
63.05	1337.0	552.7
63.06	1386.0	552.6
63.07	1397.0	552.6
63.08	1406.0	552.5
63.09	1414.0	552.4
63.1	1381.0	552.3
63.11	1388.0	552.2
63.12	1381.0	552.1
63.13	1457.0	552.0
63.14	1421.0	551.9
63.15	1392.0	551.8
63.16	1442.0	551.8
63.17	1443.0	551.7
63.18	1382.0	551.6
63.19	1390.0	551.5
63.2	1413.0	551.4
63.21	1417.0	551.3
63.22	1422.0	551.2
63.23	1436.0	551.1
63.24	1405.0	551.0
63.25	1442.0	551.0
63.26	1464.0	550.9
63.27	1415.0	550.8
63.28	1393.0	550.7
63.29	1360.0	550.6
63.3	1397.0	550.5
63.31	1379.0	550.4
63.32	1403.0	550.3
63.33	1378.0	550.2
63.34	1349.0	550.2
63.35	1381.0	550.1
63.36	1353.0	550.0
63.37	1325.0	549.9
63.38	1307.0	549.8
63.39	1323.0	549.7
63.4	1318.0	549.6
63.41	1328.0	549.5
63.42	1344.0	549.4
63.43	1324.0	549.4
63.44	1268.0	549.3
63.45	1255.0	549.2
63.46	1234.0	549.1
63.47	1211.0	549.0
63.48	1213.0	548.9
63.49	1194.0	548.8
63.5	1184.0	548.7
63.51	1209.0	548.7
63.52	1211.0	548.6
63.53	1145.0	548.5
63.54	1163.0	548.4
63.55	1140.0	548.3
63.56	1138.0	548.2
63.57	1131.0	548.1
63.58	1105.0	548.0
63.59	1079.0	548.0
63.6	1105.0	547.9
63.61	1095.0	547.8
63.62	1055.0	547.7
63.63	1057.0	547.6
63.64	1067.0	547.5
63.65	1007.0	547.4
63.66	950.0	547.3
63.67	968.0	547.3
63.68	962.0	547.2
63.69	957.0	547.1
63.7	932.0	547.0
63.71	923.0	546.9
63.72	896.0	546.8
63.73	892.0	546.7
63.74	914.0	546.6
63.75	901.0	546.6
63.76	894.0	546.5
63.77	862.0	546.4
63.78	858.0	546.3
63.79	884.0	546.2
63.8	893.0	546.1
63.81	866.0	546.0
63.82	844.0	546.0
63.83	839.0	545.9
63.84	823.0	545.8
63.85	801.0	545.7
63.86	823.0	545.6
63.87	801.0	545.5
63.88	780.0	545.4
63.89	767.0	545.4
63.9	774.0	545.3
63.91	753.0	545.2
63.92	737.0	545.1
63.93	772.0	545.0
63.94	775.0	544.9
63.95	781.0	544.8
63.96	778.0	544.7
63.97	760.0	544.7
63.98	723.0	544.6
63.99	728.0	544.5
64.0	703.0	544.4
64.01	701.0	544.3
64.02	733.0	544.2
64.03	723.0	544.1
64.04	693.0	544.1
64.05	724.0	544.0
64.06	700.0	543.9
64.07	694.0	543.8
64.08	685.0	543.7
64.09	692.0	543.6
64.1	713.0	543.5
64.11	716.0	543.5
64.12	680.0	543.4
64.13	682.0	543.3
64.14	650.0	543.2
64.15	683.0	543.1
64.16	723.0	543.0
64.17	708.0	542.9
64.18	688.0	542.9
64.19	661.0	542.8
64.2	669.0	542.7
64.21	683.0	542.6
64.22	663.0	542.5
64.23	642.0	542.4
64.24	646.0	542.3
64.25	678.0	542.3
64.26	662.0	542.2
64.27	634.0	542.1
64.28	646.0	542.0
64.29	632.0	541.9
64.3	594.0	541.8
64.31	658.0	541.7
64.32	667.0	541.7
64.33	651.0	541.6
64.34	640.0	541.5
64.35	628.0	541.4
64.36	609.0	541.3
64.37	641.0	541.2
64.38	646.0	541.2
64.39	631.0	541.1
64.4	633.0	541.0
64.41	629.0	540.9
64.42	623.0	540.8
64.43	636.0	540.7
64.44	619.0	540.6
64.45	619.0	540.6
64.46	607.0	540.5
64.47	643.0	540.4
64.48	651.0	540.3
64.49	623.0	540.2
64.5	614.0	540.1
64.51	616.0	540.0
64.52	618.0	540.0
64.53	616.0	539.9
64.54	594.0	539.8
64.55	628.0	539.7
64.56	631.0	539.6
64.57	609.0	539.5
64.58	604.0	539.5
64.59	612.0	539.4
64.6	590.0	539.3
64.61	580.0	539.2
64.62	570.0	539.1
64.63	582.0	539.0
64.64	585.0	538.9
64.65	570.0	538.9
64.66	587.0	538.8
64.67	567.0	538.7
64.68	585.0	538.6
64.69	603.0	538.5
64.7	632.0	538.4
64.71	616.0	538.4
64.72	584.0	538.3
64.73	603.0	538.2
64.74	587.0	538.1
64.75	578.0	538.0
64.76	602.0	537.9
64.77	572.0	537.9
64.78	571.0	537.8
64.79	569.0	537.7
64.8	555.0	537.6
64.81	584.0	537.5
64.82	589.0	537.4
64.83	617.0	537.3
64.84	592.0	537.3
64.85	576.0	537.2
64.86	574.0	537.1
64.87	559.0	537.0
64.88	574.0	536.9
64.89	614.0	536.8
64.9	629.0	536.8
64.91	598.0	536.7
64.92	574.0	536.6
64.93	566.0	536.5
64.94	589.0	536.4
64.95	574.0	536.3
64.96	584.0	536.3
64.97	573.0	536.2
64.98	548.0	536.1
64.99	562.0	536.0
65.0	593.0	535.9
65.01	580.0	535.8
65.02	562.0	535.8
65.03	543.0	535.7
65.04	522.0	535.6
65.05	558.0	535.5
65.06	570.0	535.4
65.07	574.0	535.3
65.08	579.0	535.3
65.09	559.0	535.2
65.1	553.0	535.1
65.11	544.0	535.0
65.12	558.0	534.9
65.13	563.0	534.8
65.14	552.0	534.8
65.15	551.0	534.7
65.16	561.0	534.6
65.17	545.0	534.5
65.18	545.0	534.4
65.19	554.0	534.3
65.2	543.0	534.3
65.21	537.0	534.2
65.22	529.0	534.1
65.23	536.0	534.0
65.24	560.0	533.9
65.25	547.0	533.8
65.26	539.0	533.8
65.27	537.0	533.7
65.28	575.0	533.6
65.29	551.0	533.5
65.3	569.0	533.4
65.31	561.0	533.3
65.32	550.0	533.3
65.33	546.0	533.2
65.34	546.0	533.1
65.35	507.0	533.0
65.36	498.0	532.9
65.37	542.0	532.8
65.38	558.0	532.8
65.39	579.0	532.7
65.4	575.0	532.6
65.41	533.0	532.5
65.42	524.0	532.4
65.43	525.0	532.4
65.44	578.0	532.3
65.45	579.0	532.2
65.46	570.0	532.1
65.47	542.0	532.0
65.48	552.0	531.9
65.49	545.0	531.9
65.5	544.0	531.8
65.51	538.0	531.7
65.52	553.0	531.6
65.53	517.0	531.5
65.54	519.0	531.4
65.55	529.0	531.4
65.56	536.0	531.3
65.57	540.0	531.2
65.58	528.0	531.1
65.59	534.0	531.0
65.6	554.0	530.9
65.61	544.0	530.9
65.62	538.0	530.8
65.63	554.0	530.7
65.64	538.0	530.6
65.65	531.0	530.5
65.66	539.0	530.5
65.67	526.0	530.4
65.68	555.0	530.3
65.69	534.0	530.2
65.7	557.0	530.1
65.71	562.0	530.0
65.72	551.0	530.0
65.73	513.0	529.9
65.74	528.0	529.8
65.75	531.0	529.7
65.76	514.0	529.6
65.77	535.0	529.6
65.78	550.0	529.5
65.79	518.0	529.4
65.8	522.0	529.3
65.81	492.0	529.2
65.82	507.0	529.1
65.83	513.0	529.1
65.84	535.0	529.0
65.85	539.0	528.9
65.86	541.0	528.8
65.87	516.0	528.7
65.88	519.0	528.7
65.89	510.0	528.6
65.9	530.0	528.5
65.91	548.0	528.4
65.92	522.0	528.3
65.93	518.0	528.2
65.94	540.0	528.2
65.95	551.0	528.1
65.96	553.0	528.0
65.97	562.0	527.9
65.98	549.0	527.8
65.99	555.0	527.8
66.0	555.0	527.7
66.01	537.0	527.6
66.02	539.0	527.5
66.03	535.0	527.4
66.04	541.0	527.4
66.05	530.0	527.3
66.06	554.0	527.2
66.07	553.0	527.1
66.08	536.0	527.0
66.09	546.0	526.9
66.1	506.0	526.9
66.11	508.0	526.8
66.12	541.0	526.7
66.13	559.0	526.6
66.14	561.0	526.5
66.15	559.0	526.5
66.16	544.0	526.4
66.17	526.0	526.3
66.18	552.0	526.2
66.19	538.0	526.1
66.2	509.0	526.1
66.21	522.0	526.0
66.22	529.0	525.9
66.23	550.0	525.8
66.24	546.0	525.7
66.25	543.0	525.7
66.26	534.0	525.6
66.27	553.0	525.5
66.28	529.0	525.4
66.29	530.0	525.3
66.3	515.0	525.3
66.31	515.0	525.2
66.32	539.0	525.1
66.33	574.0	525.0
66.34	528.0	524.9
66.35	541.0	524.8
66.36	551.0	524.8
66.37	552.0	524.7
66.38	539.0	524.6
66.39	528.0	524.5
66.4	511.0	524.4
66.41	532.0	524.4
66.42	535.0	524.3
66.43	521.0	524.2
66.44	510.0	524.1
66.45	523.0	524.0
66.46	518.0	524.0
66.47	535.0	523.9
66.48	532.0	523.8
66.49	524.0	523.7
66.5	549.0	523.6
66.51	547.0	523.6
66.52	539.0	523.5
66.53	531.0	523.4
66.54	505.0	523.3
66.55	521.0	523.2
66.56	525.0	523.2
66.57	536.0	523.1
66.58	532.0	523.0
66.59	524.0	522.9
66.6	529.0	522.8
66.61	511.0	522.8
66.62	506.0	522.7
66.63	512.0	522.6
66.64	537.0	522.5
66.65	545.0	522.4
66.66	562.0	522.4
66.67	561.0	522.3
66.68	554.0	522.2
66.69	544.0	522.1
66.7	515.0	522.0
66.71	483.0	522.0
66.72	529.0	521.9
66.73	518.0	521.8
66.74	502.0	521.7
66.75	516.0	521.6
66.76	562.0	521.6
66.77	547.0	521.5
66.78	546.0	521.4
66.79	541.0	521.3
66.8	524.0	521.2
66.81	505.0	521.2
66.82	491.0	521.1
66.83	528.0	521.0
66.84	530.0	520.9
66.85	503.0	520.9
66.86	476.0	520.8
66.87	535.0	520.7
66.88	508.0	520.6
66.89	516.0	520.5
66.9	515.0	520.5
66.91	567.0	520.4
66.92	550.0	520.3
66.93	525.0	520.2
66.94	501.0	520.1
66.95	552.0	520.1
66.96	546.0	520.0
66.97	525.0	519.9
66.98	500.0	519.8
66.99	505.0	519.7
67.0	507.0	519.7
67.01	508.0	519.6
67.02	547.0	519.5
67.03	530.0	519.4
67.04	537.0	519.3
67.05	529.0	519.3
67.06	517.0	519.2
67.07	516.0	519.1
67.08	521.0	519.0
67.09	515.0	519.0
67.1	528.0	518.9
67.11	519.0	518.8
67.12	512.0	518.7
67.13	522.0	518.6
67.14	495.0	518.6
67.15	519.0	518.5
67.16	524.0	518.4
67.17	546.0	518.3
67.18	550.0	518.2
67.19	539.0	518.2
67.2	524.0	518.1
67.21	532.0	518.0
67.22	540.0	517.9
67.23	540.0	517.8
67.24	520.0	517.8
67.25	530.0	517.7
67.26	558.0	517.6
67.27	543.0	517.5
67.28	529.0	517.5
67.29	527.0	517.4
67.3	531.0	517.3
67.31	508.0	517.2
67.32	517.0	517.1
67.33	482.0	517.1
67.34	543.0	517.0
67.35	506.0	516.9
67.36	524.0	516.8
67.37	553.0	516.8
67.38	524.0	516.7
67.39	533.0	516.6
67.4	506.0	516.5
67.41	515.0	516.4
67.42	520.0	516.4
67.43	530.0	516.3
67.44	517.0	516.2
67.45	506.0	516.1
67.46	537.0	516.0
67.47	552.0	516.0
67.48	559.0	515.9
67.49	562.0	515.8
67.5	561.0	515.7
67.51	553.0	515.7
67.52	539.0	515.6
67.53	543.0	515.5
67.54	526.0	515.4
67.55	562.0	515.3
67.56	557.0	515.3
67.57	557.0	515.2
67.58	565.0	515.1
67.59	547.0	515.0
67.6	526.0	515.0
67.61	528.0	514.9
67.62	545.0	514.8
67.63	566.0	514.7
67.64	558.0	514.6
67.65	552.0	514.6
67.66	549.0	514.5
67.67	533.0	514.4
67.68	499.0	514.3
67.69	520.0	514.3
67.7	552.0	514.2
67.71	547.0	514.1
67.72	520.0	514.0
67.73	539.0	513.9
67.74	540.0	513.9
67.75	552.0	513.8
67.76	529.0	513.7
67.77	527.0	513.6
67.78	523.0	513.6
67.79	537.0	513.5
67.8	512.0	513.4
67.81	514.0	513.3
67.82	533.0	513.3
67.83	549.0	513.2
67.84	545.0	513.1
67.85	557.0	513.0
67.86	563.0	512.9
67.87	547.0	512.9
67.88	553.0	512.8
67.89	555.0	512.7
67.9	535.0	512.6
67.91	545.0	512.6
67.92	537.0	512.5
67.93	561.0	512.4
67.94	557.0	512.3
67.95	557.0	512.3
67.96	553.0	512.2
67.97	540.0	512.1
67.98	553.0	512.0
67.99	554.0	511.9
68.0	543.0	511.9
68.01	532.0	511.8
68.02	558.0	511.7
68.03	525.0	511.6
68.04	549.0	511.6
68.05	554.0	511.5
68.06	548.0	511.4
68.07	553.0	511.3
68.08	551.0	511.3
68.09	562.0	511.2
68.1	558.0	511.1
68.11	553.0	511.0
68.12	576.0	510.9
68.13	544.0	510.9
68.14	541.0	510.8
68.15	572.0	510.7
68.16	583.0	510.6
68.17	596.0	510.6
68.18	567.0	510.5
68.19	577.0	510.4
68.2	579.0	510.3
68.21	546.0	510.3
68.22	563.0	510.2
68.23	595.0	510.1
68.24	595.0	510.0
68.25	599.0	510.0
68.26	601.0	509.9
68.27	571.0	509.8
68.28	549.0	509.7
68.29	561.0	509.6
68.3	568.0	509.6
68.31	565.0	509.5
68.32	578.0	509.4
68.33	570.0	509.3
68.34	571.0	509.3
68.35	603.0	509.2
68.36	601.0	509.1
68.37	621.0	509.0
68.38	628.0	509.0
68.39	585.0	508.9
68.4	592.0	508.8
68.41	582.0	508.7
68.42	587.0	508.7
68.43	613.0	508.6
68.44	595.0	508.5
68.45	603.0	508.4
68.46	628.0	508.4
68.47	628.0	508.3
68.48	605.0	508.2
68.49	608.0	508.1
68.5	605.0	508.1
68.51	611.0	508.0
68.52	631.0	507.9
68.53	628.0	507.8
68.54	633.0	507.7
68.55	622.0	507.7
68.56	592.0	507.6
68.57	625.0	507.5
68.58	624.0	507.4
68.59	662.0	507.4
68.6	618.0	507.3
68.61	625.0	507.2
68.62	640.0	507.1
68.63	626.0	507.1
68.64	654.0	507.0
68.65	627.0	506.9
68.66	617.0	506.8
68.67	623.0	506.8
68.68	666.0	506.7
68.69	649.0	506.6
68.7	602.0	506.5
68.71	626.0	506.5
68.72	635.0	506.4
68.73	641.0	506.3
68.74	627.0	506.2
68.75	645.0	506.2
68.76	674.0	506.1
68.77	700.0	506.0
68.78	672.0	505.9
68.79	703.0	505.9
68.8	717.0	505.8
68.81	743.0	505.7
68.82	731.0	505.6
68.83	722.0	505.6
68.84	712.0	505.5
68.85	733.0	505.4
68.86	725.0	505.3
68.87	699.0	505.3
68.88	705.0	505.2
68.89	697.0	505.1
68.9	718.0	505.0
68.91	728.0	505.0
68.92	736.0	504.9
68.93	755.0	504.8
68.94	754.0	504.7
68.95	757.0	504.7
68.96	755.0	504.6
68.97	780.0	504.5
68.98	784.0	504.4
68.99	766.0	504.4
69.0	758.0	504.3
69.01	779.0	504.2
69.02	776.0	504.1
69.03	744.0	504.1
69.04	766.0	504.0
69.05	799.0	503.9
69.06	798.0	503.8
69.07	841.0	503.8
69.08	825.0	503.7
69.09	823.0	503.6
69.1	843.0	503.5
69.11	835.0	503.5
69.12	826.0	503.4
69.13	833.0	503.3
69.14	830.0	503.2
69.15	827.0	503.2
69.16	834.0	503.1
69.17	851.0	503.0
69.18	820.0	502.9
69.19	840.0	502.9
69.2	884.0	502.8
69.21	880.0	502.7
69.22	870.0	502.6
69.23	875.0	502.6
69.24	873.0	502.5
69.25	878.0	502.4
69.26	859.0	502.4
69.27	851.0	502.3
69.28	881.0	502.2
69.29	865.0	502.1
69.3	885.0	502.1
69.31	884.0	502.0
69.32	861.0	501.9
69.33	883.0	501.8
69.34	895.0	501.8
69.35	912.0	501.7
69.36	884.0	501.6
69.37	910.0	501.5
69.38	921.0	501.5
69.39	890.0	501.4
69.4	887.0	501.3
69.41	851.0	501.2
69.42	877.0	501.2
69.43	866.0	501.1
69.44	893.0	501.0
69.45	888.0	500.9
69.46	879.0	500.9
69.47	857.0	500.8
69.48	901.0	500.7
69.49	875.0	500.7
69.5	848.0	500.6
69.51	843.0	500.5
69.52	827.0	500.4
69.53	824.0	500.4
69.54	830.0	500.3
69.55	843.0	500.2
69.56	824.0	500.1
69.57	804.0	500.1
69.58	818.0	500.0
69.59	844.0	499.9
69.6	818.0	499.8
69.61	823.0	499.8
69.62	817.0	499.7
69.63	814.0	499.6
69.64	813.0	499.5
69.65	800.0	499.5
69.66	768.0	499.4
69.67	788.0	499.3
69.68	783.0	499.3
69.69	795.0	499.2
69.7	785.0	499.1
69.71	812.0	499.0
69.72	803.0	499.0
69.73	818.0	498.9
69.74	829.0	498.8
69.75	771.0	498.7
69.76	762.0	498.7
69.77	779.0	498.6
69.78	814.0	498.5
69.79	800.0	498.4
69.8	788.0	498.4
69.81	756.0	498.3
69.82	755.0	498.2
69.83	758.0	498.2
69.84	755.0	498.1
69.85	776.0	498.0
69.86	783.0	497.9
69.87	760.0	497.9
69.88	743.0	497.8
69.89	728.0	497.7
69.9	712.0	497.6
69.91	712.0	497.6
69.92	753.0	497.5
69.93	739.0	497.4
69.94	761.0	497.4
69.95	774.0	497.3
69.96	738.0	497.2
69.97	757.0	497.1
69.98	743.0	497.1
69.99	738.0	497.0
70.0	735.0	496.9
70.01	758.0	496.8
70.02	740.0	496.8
70.03	691.0	496.7
70.04	751.0	496.6
70.05	749.0	496.6
70.06	735.0	496.5
70.07	717.0	496.4
70.08	729.0	496.3
70.09	742.0	496.3
70.1	724.0	496.2
70.11	703.0	496.1
70.12	689.0	496.0
70.13	732.0	496.0
70.14	741.0	495.9
70.15	748.0	495.8
70.16	746.0	495.8
70.17	763.0	495.7
70.18	757.0	495.6
70.19	732.0	495.5
70.2	719.0	495.5
70.21	740.0	495.4
70.22	758.0	495.3
70.23	744.0	495.3
70.24	771.0	495.2
70.25	739.0	495.1
70.26	722.0	495.0
70.27	717.0	495.0
70.28	747.0	494.9
70.29	735.0	494.8
70.3	757.0	494.7
70.31	763.0	494.7
70.32	767.0	494.6
70.33	772.0	494.5
70.34	776.0	494.5
70.35	784.0	494.4
70.36	771.0	494.3
70.37	762.0	494.2
70.38	793.0	494.2
70.39	810.0	494.1
70.4	779.0	494.0
70.41	799.0	494.0
70.42	816.0	493.9
70.43	809.0	493.8
70.44	829.0	493.7
70.45	809.0	493.7
70.46	813.0	493.6
70.47	858.0	493.5
70.48	828.0	493.5
70.49	809.0	493.4
70.5	801.0	493.3
70.51	818.0	493.2
70.52	833.0	493.2
70.53	865.0	493.1
70.54	831.0	493.0
70.55	829.0	493.0
70.56	873.0	492.9
70.57	884.0	492.8
70.58	861.0	492.7
70.59	883.0	492.7
70.6	912.0	492.6
70.61	890.0	492.5
70.62	875.0	492.5
70.63	880.0	492.4
70.64	871.0	492.3
70.65	881.0	492.2
70.66	883.0	492.2
70.67	860.0	492.1
70.68	884.0	492.0
70.69	883.0	492.0
70.7	899.0	491.9
70.71	928.0	491.8
70.72	883.0	491.7
70.73	875.0	491.7
70.74	900.0	491.6
70.75	912.0	491.5
70.76	899.0	491.5
70.77	880.0	491.4
70.78	893.0	491.3
70.79	873.0	491.2
70.8	864.0	491.2
70.81	853.0	491.1
70.82	892.0	491.0
70.83	873.0	491.0
70.84	845.0	490.9
70.85	861.0	490.8
70.86	868.0	490.7
70.87	855.0	490.7
70.88	830.0	490.6
70.89	866.0	490.5
70.9	873.0	490.5
70.91	871.0	490.4
70.92	891.0	490.3
70.93	829.0	490.2
70.94	826.0	490.2
70.95	836.0	490.1
70.96	827.0	490.0
70.97	832.0	490.0
70.98	857.0	489.9
70.99	834.0	489.8
71.0	811.0	489.8
71.01	801.0	489.7
71.02	822.0	489.6
71.03	841.0	489.5
71.04	822.0	489.5
71.05	792.0	489.4
71.06	804.0	489.3
71.07	767.0	489.3
71.08	783.0	489.2
71.09	774.0	489.1
71.1	740.0	489.0
71.11	731.0	489.0
71.12	734.0	488.9
71.13	769.0	488.8
71.14	752.0	488.8
71.15	741.0	488.7
71.16	730.0	488.6
71.17	725.0	488.6
71.18	722.0	488.5
71.19	717.0	488.4
71.2	707.0	488.3
71.21	701.0	488.3
71.22	710.0	488.2
71.23	672.0	488.1
71.24	706.0	488.1
71.25	695.0	488.0
71.26	684.0	487.9
71.27	698.0	487.9
71.28	677.0	487.8
71.29	654.0	487.7
71.3	676.0	487.6
71.31	650.0	487.6
71.32	621.0	487.5
71.33	622.0	487.4
71.34	670.0	487.4
71.35	644.0	487.3
71.36	625.0	487.2
71.37	672.0	487.2
71.38	666.0	487.1
71.39	639.0	487.0
71.4	606.0	486.9
71.41	630.0	486.9
71.42	602.0	486.8
71.43	642.0	486.7
71.44	646.0	486.7
71.45	634.0	486.6
71.46	632.0	486.5
71.47	596.0	486.5
71.48	568.0	486.4
71.49	576.0	486.3
71.5	571.0	486.2
71.51	555.0	486.2
71.52	569.0	486.1
71.53	578.0	486.0
71.54	572.0	486.0
71.55	609.0	485.9
71.56	617.0	485.8
71.57	602.0	485.8
71.58	569.0	485.7
71.59	580.0	485.6
71.6	578.0	485.6
71.61	586.0	485.5
71.62	585.0	485.4
71.63	553.0	485.3
71.64	549.0	485.3
71.65	566.0	485.2
71.66	540.0	485.1
71.67	555.0	485.1
71.68	545.0	485.0
71.69	540.0	484.9
71.7	537.0	484.9
71.71	539.0	484.8
71.72	556.0	484.7
71.73	565.0	484.7
71.74	536.0	484.6
71.75	521.0	484.5
71.76	532.0	484.4
71.77	551.0	484.4
71.78	556.0	484.3
71.79	550.0	484.2
71.8	528.0	484.2
71.81	524.0	484.1
71.82	557.0	484.0
71.83	557.0	484.0
71.84	528.0	483.9
71.85	554.0	483.8
71.86	554.0	483.8
71.87	536.0	483.7
71.88	524.0	483.6
71.89	521.0	483.5
71.9	527.0	483.5
71.91	528.0	483.4
71.92	528.0	483.3
71.93	541.0	483.3
71.94	534.0	483.2
71.95	524.0	483.1
71.96	524.0	483.1
71.97	518.0	483.0
71.98	533.0	482.9
71.99	519.0	482.9
72.0	535.0	482.8
72.01	526.0	482.7
72.02	512.0	482.7
72.03	517.0	482.6
72.04	511.0	482.5
72.05	496.0	482.4
72.06	509.0	482.4
72.07	536.0	482.3
72.08	521.0	482.2
72.09	491.0	482.2
72.1	493.0	482.1
72.11	507.0	482.0
72.12	507.0	482.0
72.13	519.0	481.9
72.14	526.0	481.8
72.15	515.0	481.8
72.16	506.0	481.7
72.17	540.0	481.6
72.18	522.0	481.6
72.19	520.0	481.5
72.2	525.0	481.4
72.21	522.0	481.4
72.22	507.0	481.3
72.23	502.0	481.2
72.24	502.0	481.1
72.25	503.0	481.1
72.26	504.0	481.0
72.27	497.0	480.9
72.28	524.0	480.9
72.29	506.0	480.8
72.3	506.0	480.7
72.31	499.0	480.7
72.32	485.0	480.6
72.33	501.0	480.5
72.34	523.0	480.5
72.35	542.0	480.4
72.36	519.0	480.3
72.37	477.0	480.3
72.38	479.0	480.2
72.39	491.0	480.1
72.4	500.0	480.1
72.41	502.0	480.0
72.42	508.0	479.9
72.43	512.0	479.9
72.44	501.0	479.8
72.45	508.0	479.7
72.46	488.0	479.7
72.47	503.0	479.6
72.48	497.0	479.5
72.49	494.0	479.4
72.5	499.0	479.4
72.51	495.0	479.3
72.52	495.0	479.2
72.53	488.0	479.2
72.54	497.0	479.1
72.55	503.0	479.0
72.56	509.0	479.0
72.57	499.0	478.9
72.58	488.0	478.8
72.59	496.0	478.8
72.6	476.0	478.7
72.61	489.0	478.6
72.62	488.0	478.6
72.63	502.0	478.5
72.64	487.0	478.4
72.65	492.0	478.4
72.66	486.0	478.3
72.67	503.0	478.2
72.68	506.0	478.2
72.69	515.0	478.1
72.7	510.0	478.0
72.71	487.0	478.0
72.72	474.0	477.9
72.73	480.0	477.8
72.74	489.0	477.8
72.75	488.0	477.7
72.76	510.0	477.6
72.77	499.0	477.6
72.78	477.0	477.5
72.79	497.0	477.4
72.8	525.0	477.4
72.81	516.0	477.3
72.82	477.0	477.2
72.83	502.0	477.2
72.84	511.0	477.1
72.85	511.0	477.0
72.86	505.0	477.0
72.87	495.0	476.9
72.88	469.0	476.8
72.89	508.0	476.7
72.9	507.0	476.7
72.91	503.0	476.6
72.92	497.0	476.5
72.93	501.0	476.5
72.94	527.0	476.4
72.95	537.0	476.3
72.96	505.0	476.3
72.97	479.0	476.2
72.98	495.0	476.1
72.99	492.0	476.1
73.0	495.0	476.0
73.01	492.0	475.9
73.02	488.0	475.9
73.03	498.0	475.8
73.04	493.0	475.7
73.05	489.0	475.7
73.06	484.0	475.6
73.07	471.0	475.5
73.08	504.0	475.5
73.09	522.0	475.4
73.1	516.0	475.3
73.11	492.0	475.3
73.12	487.0	475.2
73.13	492.0	475.1
73.14	484.0	475.1
73.15	497.0	475.0
73.16	504.0	474.9
73.17	507.0	474.9
73.18	514.0	474.8
73.19	505.0	474.7
73.2	485.0	474.7
73.21	499.0	474.6
73.22	489.0	474.5
73.23	497.0	474.5
73.24	516.0	474.4
73.25	486.0	474.3
73.26	493.0	474.3
73.27	488.0	474.2
73.28	475.0	474.1
73.29	479.0	474.1
73.3	464.0	474.0
73.31	475.0	473.9
73.32	493.0	473.9
73.33	485.0	473.8
73.34	474.0	473.7
73.35	461.0	473.7
73.36	502.0	473.6
73.37	493.0	473.5
73.38	472.0	473.5
73.39	517.0	473.4
73.4	515.0	473.3
73.41	497.0	473.3
73.42	477.0	473.2
73.43	480.0	473.1
73.44	489.0	473.1
73.45	490.0	473.0
73.46	500.0	472.9
73.47	479.0	472.9
73.48	498.0	472.8
73.49	509.0	472.7
73.5	518.0	472.7
73.51	522.0	472.6
73.52	546.0	472.5
73.53	525.0	472.5
73.54	493.0	472.4
73.55	539.0	472.3
73.56	532.0	472.3
73.57	499.0	472.2
73.58	497.0	472.1
73.59	501.0	472.1
73.6	533.0	472.0
73.61	508.0	471.9
73.62	480.0	471.9
73.63	503.0	471.8
73.64	513.0	471.7
73.65	502.0	471.7
73.66	466.0	471.6
73.67	504.0	471.5
73.68	509.0	471.5
73.69	475.0	471.4
73.7	483.0	471.3
73.71	537.0	471.3
73.72	502.0	471.2
73.73	490.0	471.1
73.74	506.0	471.1
73.75	496.0	471.0
73.76	508.0	470.9
73.77	513.0	470.9
73.78	527.0	470.8
73.79	522.0	470.7
73.8	537.0	470.7
73.81	518.0	470.6
73.82	492.0	470.5
73.83	496.0	470.5
73.84	492.0	470.4
73.85	485.0	470.3
73.86	488.0	470.3
73.87	494.0	470.2
73.88	508.0	470.1
73.89	522.0	470.1
73.9	532.0	470.0
73.91	516.0	469.9
73.92	485.0	469.9
73.93	533.0	469.8
73.94	554.0	469.7
73.95	535.0	469.7
73.96	513.0	469.6
73.97	522.0	469.5
73.98	536.0	469.5
73.99	548.0	469.4
74.0	525.0	469.3
74.01	510.0	469.3
74.02	540.0	469.2
74.03	542.0	469.1
74.04	552.0	469.1
74.05	545.0	469.0
74.06	533.0	468.9
74.07	533.0	468.9
74.08	528.0	468.8
74.09	518.0	468.7
74.1	537.0	468.7
74.11	539.0	468.6
74.12	533.0	468.5
74.13	535.0	468.5
74.14	529.0	468.4
74.15	539.0	468.3
74.16	556.0	468.3
74.17	572.0	468.2
74.18	590.0	468.1
74.19	565.0	468.1
74.2	512.0	468.0
74.21	523.0	467.9
74.22	546.0	467.9
74.23	531.0	467.8
74.24	557.0	467.7
74.25	570.0	467.7
74.26	582.0	467.6
74.27	542.0	467.5
74.28	527.0	467.5
74.29	558.0	467.4
74.3	553.0	467.3
74.31	543.0	467.3
74.32	553.0	467.2
74.33	562.0	467.1
74.34	546.0	467.1
74.35	569.0	467.0
74.36	587.0	466.9
74.37	572.0	466.9
74.38	564.0	466.8
74.39	565.0	466.7
74.4	548.0	466.7
74.41	558.0	466.6
74.42	597.0	466.5
74.43	587.0	466.5
74.44	557.0	466.4
74.45	590.0	466.3
74.46	575.0	466.3
74.47	590.0	466.2
74.48	600.0	466.1
74.49	589.0	466.1
74.5	607.0	466.0
74.51	604.0	465.9
74.52	598.0	465.9
74.53	604.0	465.8
74.54	578.0	465.7
74.55	617.0	465.7
74.56	607.0	465.6
74.57	591.0	465.5
74.58	619.0	465.5
74.59	622.0	465.4
74.6	595.0	465.3
74.61	600.0	465.3
74.62	621.0	465.2
74.63	624.0	465.1
74.64	646.0	465.1
74.65	664.0	465.0
74.66	651.0	464.9
74.67	659.0	464.9
74.68	656.0	464.8
74.69	633.0	464.7
74.7	624.0	464.7
74.71	633.0	464.6
74.72	657.0	464.5
74.73	653.0	464.5
74.74	659.0	464.4
74.75	658.0	464.3
74.76	649.0	464.3
74.77	651.0	464.2
74.78	675.0	464.1
74.79	660.0	464.0
74.8	656.0	464.0
74.81	673.0	463.9
74.82	714.0	463.8
74.83	674.0	463.8
74.84	656.0	463.7
74.85	684.0	463.6
74.86	677.0	463.6
74.87	688.0	463.5
74.88	712.0	463.4
74.89	741.0	463.4
74.9	710.0	463.3
74.91	697.0	463.2
74.92	688.0	463.2
74.93	715.0	463.1
74.94	717.0	463.0
74.95	731.0	463.0
74.96	767.0	462.9
74.97	787.0	462.8
74.98	744.0	462.8
74.99	757.0	462.7
75.0	740.0	462.6
75.01	741.0	462.6
75.02	770.0	462.5
75.03	752.0	462.4
75.04	777.0	462.4
75.05	796.0	462.3
75.06	809.0	462.2
75.07	792.0	462.2
75.08	792.0	462.1
75.09	823.0	462.0
75.1	820.0	462.0
75.11	819.0	461.9
75.12	823.0	461.8
75.13	848.0	461.8
75.14	856.0	461.7
75.15	859.0	461.6
75.16	877.0	461.6
75.17	853.0	461.5
75.18	895.0	461.4
75.19	841.0	461.4
75.2	872.0	461.3
75.21	904.0	461.2
75.22	898.0	461.1
75.23	951.0	461.1
75.24	952.0	461.0
75.25	935.0	460.9
75.26	934.0	460.9
75.27	940.0	460.8
75.28	951.0	460.7
75.29	942.0	460.7
75.3	932.0	460.6
75.31	942.0	460.5
75.32	984.0	460.5
75.33	1011.0	460.4
75.34	956.0	460.3
75.35	944.0	460.3
75.36	951.0	460.2
75.37	969.0	460.1
75.38	1022.0	460.1
75.39	1016.0	460.0
75.4	1033.0	459.9
75.41	1032.0	459.9
75.42	998.0	459.8
75.43	996.0	459.7
75.44	1016.0	459.7
75.45	1015.0	459.6
75.46	997.0	459.5
75.47	1038.0	459.4
75.48	1013.0	459.4
75.49	1005.0	459.3
75.5	1012.0	459.2
75.51	1052.0	459.2
75.52	1050.0	459.1
75.53	1033.0	459.0
75.54	1025.0	459.0
75.55	1017.0	458.9
75.56	1030.0	458.8
75.57	1048.0	458.8
75.58	1048.0	458.7
75.59	1016.0	458.6
75.6	996.0	458.6
75.61	1042.0	458.5
75.62	1066.0	458.4
75.63	1070.0	458.4
75.64	1062.0	458.3
75.65	1041.0	458.2
75.66	1065.0	458.1
75.67	1073.0	458.1
75.68	1033.0	458.0
75.69	996.0	457.9
75.7	988.0	457.9
75.71	1004.0	457.8
75.72	993.0	457.7
75.73	975.0	457.7
75.74	996.0	457.6
75.75	988.0	457.5
75.76	1004.0	457.5
75.77	1013.0	457.4
75.78	969.0	457.3
75.79	951.0	457.3
75.8	960.0	457.2
75.81	984.0	457.1
75.82	984.0	457.0
75.83	992.0	457.0
75.84	976.0	456.9
75.85	950.0	456.8
75.86	967.0	456.8
75.87	949.0	456.7
75.88	927.0	456.6
75.89	930.0	456.6
75.9	936.0	456.5
75.91	933.0	456.4
75.92	908.0	456.4
75.93	912.0	456.3
75.94	916.0	456.2
75.95	901.0	456.1
75.96	900.0	456.1
75.97	894.0	456.0
75.98	901.0	455.9
75.99	876.0	455.9
76.0	857.0	455.8
76.01	854.0	455.7
76.02	858.0	455.7
76.03	901.0	455.6
76.04	857.0	455.5
76.05	848.0	455.5
76.06	842.0	455.4
76.07	839.0	455.3
76.08	809.0	455.2
76.09	809.0	455.2
76.1	817.0	455.1
76.11	835.0	455.0
76.12	834.0	455.0
76.13	821.0	454.9
76.14	825.0	454.8
76.15	806.0	454.8
76.16	829.0	454.7
76.17	811.0	454.6
76.18	792.0	454.5
76.19	788.0	454.5
76.2	795.0	454.4
76.21	810.0	454.3
76.22	816.0	454.3
76.23	768.0	454.2
76.24	810.0	454.1
76.25	799.0	454.1
76.26	787.0	454.0
76.27	758.0	453.9
76.28	747.0	453.8
76.29	771.0	453.8
76.3	794.0	453.7
76.31	774.0	453.6
76.32	765.0	453.6
76.33	790.0	453.5
76.34	788.0	453.4
76.35	775.0	453.4
76.36	750.0	453.3
76.37	784.0	453.2
76.38	771.0	453.1
76.39	759.0	453.1
76.4	750.0	453.0
76.41	756.0	452.9
76.42	751.0	452.9
76.43	757.0	452.8
76.44	757.0	452.7
76.45	754.0	452.6
76.46	754.0	452.6
76.47	748.0	452.5
76.48	756.0	452.4
76.49	749.0	452.4
76.5	752.0	452.3
76.51	781.0	452.2
76.52	728.0	452.2
76.53	722.0	452.1
76.54	713.0	452.0
76.55	712.0	451.9
76.56	728.0	451.9
76.57	700.0	451.8
76.58	695.0	451.7
76.59	700.0	451.7
76.6	717.0	451.6
76.61	713.0	451.5
76.62	715.0	451.4
76.63	707.0	451.4
76.64	700.0	451.3
76.65	677.0	451.2
76.66	686.0	451.2
76.67	701.0	451.1
76.68	668.0	451.0
76.69	666.0	450.9
76.7	650.0	450.9
76.71	683.0	450.8
76.72	684.0	450.7
76.73	660.0	450.7
76.74	670.0	450.6
76.75	667.0	450.5
76.76	650.0	450.4
76.77	668.0	450.4
76.78	669.0	450.3
76.79	667.0	450.2
76.8	656.0	450.2
76.81	662.0	450.1
76.82	648.0	450.0
76.83	631.0	449.9
76.84	627.0	449.9
76.85	631.0	449.8
76.86	607.0	449.7
76.87	616.0	449.6
76.88	598.0	449.6
76.89	628.0	449.5
76.9	603.0	449.4
76.91	620.0	449.4
76.92	626.0	449.3
76.93	607.0	449.2
76.94	611.0	449.1
76.95	651.0	449.1
76.96	630.0	449.0
76.97	598.0	448.9
76.98	601.0	448.9
76.99	604.0	448.8
77.0	594.0	448.7
77.01	612.0	448.6
77.02	625.0	448.6
77.03	592.0	448.5
77.04	549.0	448.4
77.05	560.0	448.3
77.06	555.0	448.3
77.07	539.0	448.2
77.08	555.0	448.1
77.09	579.0	448.1
77.1	544.0	448.0
77.11	558.0	447.9
77.12	540.0	447.8
77.13	533.0	447.8
77.14	541.0	447.7
77.15	537.0	447.6
77.16	567.0	447.5
77.17	562.0	447.5
77.18	534.0	447.4
77.19	539.0	447.3
77.2	546.0	447.2
77.21	533.0	447.2
77.22	538.0	447.1
77.23	530.0	447.0
77.24	530.0	447.0
77.25	560.0	446.9
77.26	566.0	446.8
77.27	553.0	446.7
77.28	527.0	446.7
77.29	521.0	446.6
77.3	512.0	446.5
77.31	514.0	446.4
77.32	529.0	446.4
77.33	526.0	446.3
77.34	502.0	446.2
77.35	506.0	446.1
77.36	484.0	446.1
77.37	512.0	446.0
77.38	521.0	445.9
77.39	501.0	445.8
77.4	511.0	445.8
77.41	529.0	445.7
77.42	507.0	445.6
77.43	527.0	445.5
77.44	506.0	445.5
77.45	500.0	445.4
77.46	509.0	445.3
77.47	522.0	445.2
77.48	493.0	445.2
77.49	489.0	445.1
77.5	506.0	445.0
77.51	499.0	444.9
77.52	507.0	444.9
77.53	512.0	444.8
77.54	482.0	444.7
77.55	498.0	444.7
77.56	514.0	444.6
77.57	509.0	444.5
77.58	492.0	444.4
77.59	455.0	444.4
77.6	483.0	444.3
77.61	468.0	444.2
77.62	478.0	444.1
77.63	480.0	444.0
77.64	480.0	444.0
77.65	498.0	443.9
77.66	492.0	443.8
77.67	482.0	443.7
77.68	497.0	443.7
77.69	488.0	443.6
77.7	504.0	443.5
77.71	496.0	443.4
77.72	501.0	443.4
77.73	484.0	443.3
77.74	491.0	443.2
77.75	468.0	443.1
77.76	455.0	443.1
77.77	468.0	443.0
77.78	476.0	442.9
77.79	507.0	442.8
77.8	494.0	442.8
77.81	487.0	442.7
77.82	487.0	442.6
77.83	491.0	442.5
77.84	487.0	442.5
77.85	477.0	442.4
77.86	492.0	442.3
77.87	498.0	442.2
77.88	491.0	442.2
77.89	484.0	442.1
77.9	500.0	442.0
77.91	483.0	441.9
77.92	497.0	441.8
77.93	499.0	441.8
77.94	490.0	441.7
77.95	463.0	441.6
77.96	460.0	441.5
77.97	484.0	441.5
77.98	495.0	441.4
77.99	493.0	441.3
78.0	488.0	441.2
78.01	472.0	441.2
78.02	492.0	441.1
78.03	468.0	441.0
78.04	469.0	440.9
78.05	474.0	440.8
78.06	465.0	440.8
78.07	474.0	440.7
78.08	467.0	440.6
78.09	463.0	440.5
78.1	490.0	440.5
78.11	488.0	440.4
78.12	486.0	440.3
78.13	502.0	440.2
78.14	478.0	440.2
78.15	469.0	440.1
78.16	506.0	440.0
78.17	510.0	439.9
78.18	479.0	439.8
78.19	481.0	439.8
78.2	486.0	439.7
78.21	480.0	439.6
78.22	481.0	439.5
78.23	478.0	439.4
78.24	483.0	439.4
78.25	504.0	439.3
78.26	509.0	439.2
78.27	480.0	439.1
78.28	475.0	439.1
78.29	489.0	439.0
78.3	475.0	438.9
78.31	451.0	438.8
78.32	469.0	438.7
78.33	469.0	438.7
78.34	471.0	438.6
78.35	458.0	438.5
78.36	457.0	438.4
78.37	464.0	438.3
78.38	485.0	438.3
78.39	510.0	438.2
78.4	484.0	438.1
78.41	460.0	438.0
78.42	460.0	438.0
78.43	477.0	437.9
78.44	467.0	437.8
78.45	452.0	437.7
78.46	448.0	437.6
78.47	453.0	437.6
78.48	471.0	437.5
78.49	485.0	437.4
78.5	502.0	437.3
78.51	500.0	437.2
78.52	478.0	437.2
78.53	454.0	437.1
78.54	463.0	437.0
78.55	469.0	436.9
78.56	487.0	436.8
78.57	482.0	436.8
78.58	470.0	436.7
78.59	472.0	436.6
78.6	456.0	436.5
78.61	424.0	436.4
78.62	449.0	436.4
78.63	458.0	436.3
78.64	472.0	436.2
78.65	456.0	436.1
78.66	478.0	436.0
78.67	477.0	436.0
78.68	475.0	435.9
78.69	478.0	435.8
78.7	484.0	435.7
78.71	485.0	435.6
78.72	456.0	435.6
78.73	448.0	435.5
78.74	441.0	435.4
78.75	449.0	435.3
78.76	472.0	435.2
78.77	481.0	435.1
78.78	465.0	435.1
78.79	475.0	435.0
78.8	453.0	434.9
78.81	471.0	434.8
78.82	466.0	434.7
78.83	455.0	434.7
78.84	453.0	434.6
78.85	448.0	434.5
78.86	443.0	434.4
78.87	477.0	434.3
78.88	464.0	434.2
78.89	439.0	434.2
78.9	432.0	434.1
78.91	429.0	434.0
78.92	439.0	433.9
78.93	455.0	433.8
78.94	464.0	433.8
78.95	462.0	433.7
78.96	450.0	433.6
78.97	433.0	433.5
78.98	457.0	433.4
78.99	478.0	433.3
79.0	457.0	433.3
79.01	473.0	433.2
79.02	480.0	433.1
79.03	460.0	433.0
79.04	474.0	432.9
79.05	452.0	432.8
79.06	465.0	432.8
79.07	466.0	432.7
79.08	487.0	432.6
79.09	479.0	432.5
79.1	449.0	432.4
79.11	448.0	432.4
79.12	452.0	432.3
79.13	467.0	432.2
79.14	466.0	432.1
79.15	447.0	432.0
79.16	454.0	431.9
79.17	440.0	431.8
79.18	454.0	431.8
79.19	466.0	431.7
79.2	461.0	431.6
79.21	450.0	431.5
79.22	441.0	431.4
79.23	455.0	431.3
79.24	452.0	431.3
79.25	456.0	431.2
79.26	454.0	431.1
79.27	441.0	431.0
79.28	443.0	430.9
79.29	448.0	430.8
79.3	450.0	430.8
79.31	429.0	430.7
79.32	445.0	430.6
79.33	462.0	430.5
79.34	465.0	430.4
79.35	483.0	430.3
79.36	497.0	430.2
79.37	475.0	430.2
79.38	481.0	430.1
79.39	485.0	430.0
79.4	458.0	429.9
79.41	430.0	429.8
79.42	429.0	429.7
79.43	454.0	429.7
79.44	435.0	429.6
79.45	444.0	429.5
79.46	448.0	429.4
79.47	464.0	429.3
79.48	471.0	429.2
79.49	437.0	429.1
79.5	422.0	429.1
79.51	453.0	429.0
79.52	442.0	428.9
79.53	456.0	428.8
79.54	473.0	428.7
79.55	460.0	428.6
79.56	450.0	428.5
79.57	447.0	428.5
79.58	443.0	428.4
79.59	448.0	428.3
79.6	466.0	428.2
79.61	467.0	428.1
79.62	470.0	428.0
79.63	471.0	427.9
79.64	481.0	427.8
79.65	450.0	427.8
79.66	446.0	427.7
79.67	471.0	427.6
79.68	468.0	427.5
79.69	462.0	427.4
79.7	436.0	427.3
79.71	426.0	427.2
79.72	440.0	427.1
79.73	453.0	427.1
79.74	472.0	427.0
79.75	448.0	426.9
79.76	438.0	426.8
79.77	432.0	426.7
79.78	456.0	426.6
79.79	455.0	426.5
79.8	432.0	426.4
79.81	450.0	426.4
79.82	450.0	426.3
79.83	455.0	426.2
79.84	464.0	426.1
79.85	449.0	426.0
79.86	458.0	425.9
79.87	458.0	425.8
79.88	460.0	425.7
79.89	456.0	425.7
79.9	473.0	425.6
79.91	462.0	425.5
79.92	449.0	425.4
79.93	459.0	425.3
79.94	471.0	425.2
79.95	460.0	425.1
79.96	449.0	425.0
79.97	440.0	424.9
79.98	452.0	424.9
79.99	449.0	424.8
80.0	470.0	424.7
80.01	446.0	424.6
80.02	413.0	424.5
80.03	437.0	424.4
80.04	433.0	424.3
80.05	435.0	424.2
80.06	463.0	424.1
80.07	455.0	424.0
80.08	457.0	424.0
80.09	458.0	423.9
80.1	462.0	423.8
80.11	454.0	423.7
80.12	438.0	423.6
80.13	441.0	423.5
80.14	444.0	423.4
80.15	446.0	423.3
80.16	466.0	423.2
80.17	462.0	423.1
80.18	455.0	423.1
80.19	458.0	423.0
80.2	450.0	422.9
80.21	464.0	422.8
80.22	460.0	422.7
80.23	469.0	422.6
80.24	456.0	422.5
80.25	451.0	422.4
80.26	472.0	422.3
80.27	495.0	422.2
80.28	473.0	422.1
80.29	464.0	422.1
80.3	461.0	422.0
80.31	454.0	421.9
80.32	460.0	421.8
80.33	467.0	421.7
80.34	480.0	421.6
80.35	451.0	421.5
80.36	429.0	421.4
80.37	440.0	421.3
80.38	441.0	421.2
80.39	446.0	421.1
80.4	456.0	421.0
80.41	458.0	421.0
80.42	456.0	420.9
80.43	466.0	420.8
80.44	451.0	420.7
80.45	449.0	420.6
80.46	462.0	420.5
80.47	457.0	420.4
80.48	446.0	420.3
80.49	440.0	420.2
80.5	441.0	420.1
80.51	472.0	420.0
80.52	456.0	419.9
80.53	460.0	419.8
80.54	462.0	419.8
80.55	454.0	419.7
80.56	471.0	419.6
80.57	504.0	419.5
80.58	499.0	419.4
80.59	482.0	419.3
80.6	469.0	419.2
80.61	466.0	419.1
80.62	485.0	419.0
80.63	465.0	418.9
80.64	470.0	418.8
80.65	461.0	418.7
80.66	467.0	418.6
80.67	480.0	418.5
80.68	453.0	418.4
80.69	447.0	418.4
80.7	466.0	418.3
80.71	465.0	418.2
80.72	454.0	418.1
80.73	447.0	418.0
80.74	454.0	417.9
80.75	461.0	417.8
80.76	424.0	417.7
80.77	437.0	417.6
80.78	459.0	417.5
80.79	474.0	417.4
80.8	472.0	417.3
80.81	478.0	417.2
80.82	490.0	417.1
80.83	462.0	417.0
80.84	442.0	416.9
80.85	441.0	416.9
80.86	446.0	416.8
80.87	482.0	416.7
80.88	477.0	416.6
80.89	472.0	416.5
80.9	484.0	416.4
80.91	474.0	416.3
80.92	479.0	416.2
80.93	485.0	416.1
80.94	488.0	416.0
80.95	481.0	415.9
80.96	470.0	415.8
80.97	472.0	415.7
80.98	484.0	415.6
80.99	469.0	415.5
81.0	467.0	415.4
81.01	457.0	415.3
81.02	452.0	415.3
81.03	467.0	415.2
81.04	459.0	415.1
81.05	474.0	415.0
81.06	496.0	414.9
81.07	478.0	414.8
81.08	457.0	414.7
81.09	484.0	414.6
81.1	465.0	414.5
81.11	463.0	414.4
81.12	476.0	414.3
81.13	465.0	414.2
81.14	446.0	414.1
81.15	486.0	414.0
81.16	467.0	413.9
81.17	501.0	413.8
81.18	486.0	413.7
81.19	480.0	413.6
81.2	496.0	413.5
81.21	509.0	413.4
81.22	512.0	413.4
81.23	501.0	413.3
81.24	504.0	413.2
81.25	494.0	413.1
81.26	480.0	413.0
81.27	505.0	412.9
81.28	483.0	412.8
81.29	467.0	412.7
81.3	472.0	412.6
81.31	485.0	412.5
81.32	499.0	412.4
81.33	494.0	412.3
81.34	489.0	412.2
81.35	484.0	412.1
81.36	508.0	412.0
81.37	490.0	411.9
81.38	476.0	411.8
81.39	495.0	411.7
81.4	494.0	411.6
81.41	456.0	411.5
81.42	480.0	411.4
81.43	483.0	411.4
81.44	462.0	411.3
81.45	458.0	411.2
81.46	467.0	411.1
81.47	487.0	411.0
81.48	500.0	410.9
81.49	497.0	410.8
81.5	478.0	410.7
81.51	487.0	410.6
81.52	493.0	410.5
81.53	467.0	410.4
81.54	491.0	410.3
81.55	491.0	410.2
81.56	486.0	410.1
81.57	479.0	410.0
81.58	486.0	409.9
81.59	506.0	409.8
81.6	502.0	409.7
81.61	489.0	409.6
81.62	515.0	409.5
81.63	499.0	409.4
81.64	477.0	409.3
81.65	510.0	409.3
81.66	495.0	409.2
81.67	499.0	409.1
81.68	483.0	409.0
81.69	505.0	408.9
81.7	498.0	408.8
81.71	471.0	408.7
81.72	486.0	408.6
81.73	487.0	408.5
81.74	465.0	408.4
81.75	516.0	408.3
81.76	503.0	408.2
81.77	518.0	408.1
81.78	492.0	408.0
81.79	491.0	407.9
81.8	490.0	407.8
81.81	481.0	407.7
81.82	505.0	407.6
81.83	498.0	407.5
81.84	464.0	407.4
81.85	474.0	407.3
81.86	487.0	407.2
81.87	491.0	407.2
81.88	496.0	407.1
81.89	511.0	407.0
81.9	497.0	406.9
81.91	502.0	406.8
81.92	518.0	406.7
81.93	510.0	406.6
81.94	527.0	406.5
81.95	515.0	406.4
81.96	507.0	406.3
81.97	511.0	406.2
81.98	525.0	406.1
81.99	509.0	406.0
82.0	505.0	405.9
82.01	509.0	405.8
82.02	495.0	405.7
82.03	497.0	405.6
82.04	534.0	405.5
82.05	539.0	405.4
82.06	506.0	405.3
82.07	517.0	405.2
82.08	523.0	405.2
82.09	509.0	405.1
82.1	505.0	405.0
82.11	502.0	404.9
82.12	530.0	404.8
82.13	545.0	404.7
82.14	540.0	404.6
82.15	514.0	404.5
82.16	523.0	404.4
82.17	559.0	404.3
82.18	541.0	404.2
82.19	564.0	404.1
82.2	552.0	404.0
82.21	536.0	403.9
82.22	538.0	403.8
82.23	545.0	403.7
82.24	579.0	403.6
82.25	564.0	403.5
82.26	545.0	403.4
82.27	537.0	403.4
82.28	544.0	403.3
82.29	558.0	403.2
82.3	549.0	403.1
82.31	571.0	403.0
82.32	558.0	402.9
82.33	548.0	402.8
82.34	558.0	402.7
82.35	570.0	402.6
82.36	599.0	402.5
82.37	588.0	402.4
82.38	591.0	402.3
82.39	563.0	402.2
82.4	590.0	402.1
82.41	574.0	402.0
82.42	581.0	401.9
82.43	574.0	401.8
82.44	558.0	401.7
82.45	586.0	401.7
82.46	574.0	401.6
82.47	566.0	401.5
82.48	575.0	401.4
82.49	592.0	401.3
82.5	609.0	401.2
82.51	600.0	401.1
82.52	604.0	401.0
82.53	615.0	400.9
82.54	601.0	400.8
82.55	636.0	400.7
82.56	616.0	400.6
82.57	622.0	400.5
82.58	607.0	400.4
82.59	613.0	400.3
82.6	611.0	400.3
82.61	642.0	400.2
82.62	661.0	400.1
82.63	634.0	400.0
82.64	656.0	399.9
82.65	651.0	399.8
82.66	642.0	399.7
82.67	665.0	399.6
82.68	666.0	399.5
82.69	666.0	399.4
82.7	674.0	399.3
82.71	682.0	399.2
82.72	689.0	399.1
82.73	690.0	399.0
82.74	678.0	398.9
82.75	665.0	398.9
82.76	678.0	398.8
82.77	694.0	398.7
82.78	699.0	398.6
82.79	691.0	398.5
82.8	664.0	398.4
82.81	694.0	398.3
82.82	699.0	398.2
82.83	695.0	398.1
82.84	698.0	398.0
82.85	714.0	397.9
82.86	755.0	397.8
82.87	748.0	397.7
82.88	717.0	397.7
82.89	706.0	397.6
82.9	717.0	397.5
82.91	711.0	397.4
82.92	726.0	397.3
82.93	744.0	397.2
82.94	767.0	397.1
82.95	763.0	397.0
82.96	771.0	396.9
82.97	755.0	396.8
82.98	745.0	396.7
82.99	751.0	396.6
83.0	755.0	396.6
83.01	742.0	396.5
83.02	763.0	396.4
83.03	783.0	396.3
83.04	760.0	396.2
83.05	777.0	396.1
83.06	796.0	396.0
83.07	762.0	395.9
83.08	766.0	395.8
83.09	765.0	395.7
83.1	735.0	395.6
83.11	753.0	395.6
83.12	767.0	395.5
83.13	783.0	395.4
83.14	785.0	395.3
83.15	803.0	395.2
83.16	798.0	395.1
83.17	780.0	395.0
83.18	776.0	394.9
83.19	770.0	394.8
83.2	771.0	394.7
83.21	783.0	394.7
83.22	791.0	394.6
83.23	802.0	394.5
83.24	809.0	394.4
83.25	806.0	394.3
83.26	774.0	394.2
83.27	751.0	394.1
83.28	766.0	394.0
83.29	792.0	393.9
83.3	788.0	393.9
83.31	765.0	393.8
83.32	781.0	393.7
83.33	787.0	393.6
83.34	757.0	393.5
83.35	756.0	393.4
83.36	754.0	393.3
83.37	757.0	393.2
83.38	728.0	393.1
83.39	725.0	393.1
83.4	741.0	393.0
83.41	736.0	392.9
83.42	753.0	392.8
83.43	778.0	392.7
83.44	778.0	392.6
83.45	741.0	392.5
83.46	725.0	392.4
83.47	742.0	392.4
83.48	750.0	392.3
83.49	760.0	392.2
83.5	754.0	392.1
83.51	761.0	392.0
83.52	730.0	391.9
83.53	713.0	391.8
83.54	725.0	391.7
83.55	725.0	391.7
83.56	689.0	391.6
83.57	715.0	391.5
83.58	721.0	391.4
83.59	725.0	391.3
83.6	740.0	391.2
83.61	719.0	391.1
83.62	708.0	391.0
83.63	718.0	391.0
83.64	721.0	390.9
83.65	712.0	390.8
83.66	697.0	390.7
83.67	716.0	390.6
83.68	715.0	390.5
83.69	695.0	390.4
83.7	685.0	390.4
83.71	681.0	390.3
83.72	677.0	390.2
83.73	671.0	390.1
83.74	666.0	390.0
83.75	646.0	389.9
83.76	656.0	389.8
83.77	684.0	389.8
83.78	682.0	389.7
83.79	652.0	389.6
83.8	650.0	389.5
83.81	653.0	389.4
83.82	655.0	389.3
83.83	679.0	389.3
83.84	629.0	389.2
83.85	626.0	389.1
83.86	639.0	389.0
83.87	628.0	388.9
83.88	611.0	388.8
83.89	595.0	388.7
83.9	626.0	388.7
83.91	617.0	388.6
83.92	612.0	388.5
83.93	635.0	388.4
83.94	643.0	388.3
83.95	611.0	388.2
83.96	601.0	388.2
83.97	611.0	388.1
83.98	606.0	388.0
83.99	584.0	387.9
84.0	571.0	387.8
84.01	547.0	387.7
84.02	583.0	387.7
84.03	598.0	387.6
84.04	580.0	387.5
84.05	583.0	387.4
84.06	578.0	387.3
84.07	590.0	387.3
84.08	571.0	387.2
84.09	558.0	387.1
84.1	536.0	387.0
84.11	555.0	386.9
84.12	569.0	386.8
84.13	565.0	386.8
84.14	536.0	386.7
84.15	529.0	386.6
84.16	553.0	386.5
84.17	559.0	386.4
84.18	548.0	386.4
84.19	548.0	386.3
84.2	542.0	386.2
84.21	523.0	386.1
84.22	527.0	386.0
84.23	510.0	386.0
84.24	535.0	385.9
84.25	540.0	385.8
84.26	506.0	385.7
84.27	492.0	385.6
84.28	504.0	385.6
84.29	541.0	385.5
84.3	540.0	385.4
84.31	511.0	385.3
84.32	521.0	385.2
84.33	522.0	385.2
84.34	529.0	385.1
84.35	504.0	385.0
84.36	506.0	384.9
84.37	504.0	384.9
84.38	516.0	384.8
84.39	505.0	384.7
84.4	481.0	384.6
84.41	478.0	384.5
84.42	470.0	384.5
84.43	478.0	384.4
84.44	478.0	384.3
84.45	470.0	384.2
84.46	469.0	384.2
84.47	481.0	384.1
84.48	481.0	384.0
84.49	484.0	383.9
84.5	485.0	383.8
84.51	471.0	383.8
84.52	487.0	383.7
84.53	485.0	383.6
84.54	460.0	383.5
84.55	476.0	383.5
84.56	479.0	383.4
84.57	449.0	383.3
84.58	441.0	383.2
84.59	461.0	383.2
84.6	478.0	383.1
84.61	481.0	383.0
84.62	445.0	382.9
84.63	452.0	382.9
84.64	454.0	382.8
84.65	456.0	382.7
84.66	468.0	382.6
84.67	454.0	382.6
84.68	430.0	382.5
84.69	437.0	382.4
84.7	448.0	382.3
84.71	464.0	382.3
84.72	456.0	382.2
84.73	460.0	382.1
84.74	468.0	382.0
84.75	472.0	382.0
84.76	436.0	381.9
84.77	428.0	381.8
84.78	443.0	381.8
84.79	473.0	381.7
84.8	468.0	381.6
84.81	461.0	381.5
84.82	438.0	381.5
84.83	428.0	381.4
84.84	430.0	381.3
84.85	446.0	381.3
84.86	464.0	381.2
84.87	461.0	381.1
84.88	444.0	381.0
84.89	429.0	381.0
84.9	441.0	380.9
84.91	453.0	380.8
84.92	427.0	380.8
84.93	443.0	380.7
84.94	449.0	380.6
84.95	457.0	380.5
84.96	461.0	380.5
84.97	422.0	380.4
84.98	412.0	380.3
84.99	411.0	380.3
85.0	430.0	380.2
85.01	430.0	380.1
85.02	432.0	380.1
85.03	425.0	380.0
85.04	409.0	379.9
85.05	407.0	379.8
85.06	439.0	379.8
85.07	445.0	379.7
85.08	439.0	379.6
85.09	405.0	379.6
85.1	392.0	379.5
85.11	399.0	379.4
85.12	407.0	379.4
85.13	432.0	379.3
85.14	420.0	379.2
85.15	406.0	379.2
85.16	414.0	379.1
85.17	429.0	379.0
85.18	446.0	379.0
85.19	435.0	378.9
85.2	425.0	378.8
85.21	438.0	378.8
85.22	430.0	378.7
85.23	427.0	378.6
85.24	435.0	378.6
85.25	436.0	378.5
85.26	423.0	378.4
85.27	408.0	378.4
85.28	400.0	378.3
85.29	421.0	378.2
85.3	422.0	378.2
85.31	420.0	378.1
85.32	420.0	378.1
85.33	434.0	378.0
85.34	438.0	377.9
85.35	425.0	377.9
85.36	412.0	377.8
85.37	427.0	377.7
85.38	418.0	377.7
85.39	436.0	377.6
85.4	436.0	377.5
85.41	437.0	377.5
85.42	445.0	377.4
85.43	431.0	377.4
85.44	430.0	377.3
85.45	430.0	377.2
85.46	420.0	377.2
85.47	418.0	377.1
85.48	432.0	377.0
85.49	438.0	377.0
85.5	441.0	376.9
85.51	422.0	376.9
85.52	406.0	376.8
85.53	404.0	376.7
85.54	383.0	376.7
85.55	393.0	376.6
85.56	404.0	376.6
85.57	416.0	376.5
85.58	421.0	376.4
85.59	412.0	376.4
85.6	422.0	376.3
85.61	417.0	376.3
85.62	407.0	376.2
85.63	407.0	376.1
85.64	396.0	376.1
85.65	419.0	376.0
85.66	426.0	376.0
85.67	406.0	375.9
85.68	402.0	375.9
85.69	386.0	375.8
85.7	408.0	375.7
85.71	433.0	375.7
85.72	413.0	375.6
85.73	405.0	375.6
85.74	412.0	375.5
85.75	437.0	375.5
85.76	447.0	375.4
85.77	419.0	375.3
85.78	402.0	375.3
85.79	402.0	375.2
85.8	413.0	375.2
85.81	414.0	375.1
85.82	412.0	375.1
85.83	404.0	375.0
85.84	411.0	375.0
85.85	422.0	374.9
85.86	398.0	374.8
85.87	403.0	374.8
85.88	425.0	374.7
85.89	418.0	374.7
85.9	392.0	374.6
85.91	396.0	374.6
85.92	411.0	374.5
85.93	405.0	374.5
85.94	398.0	374.4
85.95	410.0	374.4
85.96	401.0	374.3
85.97	386.0	374.3
85.98	387.0	374.2
85.99	412.0	374.2
86.0	410.0	374.1
86.01	403.0	374.0
86.02	434.0	374.0
86.03	442.0	373.9
86.04	419.0	373.9
86.05	415.0	373.8
86.06	409.0	373.8
86.07	422.0	373.7
86.08	428.0	373.7
86.09	427.0	373.6
86.1	416.0	373.6
86.11	412.0	373.5
86.12	427.0	373.5
86.13	429.0	373.4
86.14	441.0	373.4
86.15	430.0	373.3
86.16	414.0	373.3
86.17	415.0	373.3
86.18	406.0	373.2
86.19	393.0	373.2
86.2	400.0	373.1
86.21	400.0	373.1
86.22	394.0	373.0
86.23	379.0	373.0
86.24	416.0	372.9
86.25	419.0	372.9
86.26	411.0	372.8
86.27	405.0	372.8
86.28	412.0	372.7
86.29	417.0	372.7
86.3	428.0	372.6
86.31	419.0	372.6
86.32	412.0	372.6
86.33	395.0	372.5
86.34	395.0	372.5
86.35	402.0	372.4
86.36	413.0	372.4
86.37	420.0	372.3
86.38	399.0	372.3
86.39	384.0	372.2
86.4	394.0	372.2
86.41	409.0	372.2
86.42	418.0	372.1
86.43	404.0	372.1
86.44	425.0	372.0
86.45	418.0	372.0
86.46	408.0	371.9
86.47	377.0	371.9
86.48	389.0	371.9
86.49	401.0	371.8
86.5	410.0	371.8
86.51	406.0	371.7
86.52	410.0	371.7
86.53	410.0	371.7
86.54	411.0	371.6
86.55	414.0	371.6
86.56	406.0	371.5
86.57	406.0	371.5
86.58	410.0	371.5
86.59	408.0	371.4
86.6	405.0	371.4
86.61	391.0	371.3
86.62	381.0	371.3
86.63	410.0	371.3
86.64	401.0	371.2
86.65	392.0	371.2
86.66	387.0	371.2
86.67	387.0	371.1
86.68	413.0	371.1
86.69	415.0	371.0
86.7	403.0	371.0
86.71	407.0	371.0
86.72	410.0	370.9
86.73	405.0	370.9
86.74	415.0	370.9
86.75	424.0	370.8
86.76	410.0	370.8
86.77	404.0	370.8
86.78	422.0	370.7
86.79	419.0	370.7
86.8	386.0	370.6
86.81	376.0	370.6
86.82	377.0	370.6
86.83	368.0	370.5
86.84	383.0	370.5
86.85	384.0	370.5
86.86	397.0	370.4
86.87	406.0	370.4
86.88	419.0	370.4
86.89	402.0	370.4
86.9	372.0	370.3
86.91	373.0	370.3
86.92	398.0	370.3
86.93	421.0	370.2
86.94	403.0	370.2
86.95	386.0	370.2
86.96	387.0	370.1
86.97	406.0	370.1
86.98	403.0	370.1
86.99	393.0	370.0
87.0	378.0	370.0
87.01	368.0	370.0
87.02	381.0	370.0
87.03	410.0	369.9
87.04	398.0	369.9
87.05	391.0	369.9
87.06	396.0	369.8
87.07	388.0	369.8
87.08	403.0	369.8
87.09	395.0	369.8
87.1	386.0	369.7
87.11	396.0	369.7
87.12	399.0	369.7
87.13	415.0	369.7
87.14	409.0	369.6
87.15	393.0	369.6
87.16	390.0	369.6
87.17	395.0	369.5
87.18	402.0	369.5
87.19	394.0	369.5
87.2	387.0	369.5
87.21	411.0	369.4
87.22	428.0	369.4
87.23	416.0	369.4
87.24	404.0	369.4
87.25	408.0	369.4
87.26	388.0	369.3
87.27	395.0	369.3
87.28	399.0	369.3
87.29	395.0	369.3
87.3	399.0	369.2
87.31	423.0	369.2
87.32	417.0	369.2
87.33	401.0	369.2
87.34	394.0	369.1
87.35	409.0	369.1
87.36	410.0	369.1
87.37	397.0	369.1
87.38	401.0	369.1
87.39	400.0	369.0
87.4	398.0	369.0
87.41	392.0	369.0
87.42	382.0	369.0
87.43	385.0	369.0
87.44	402.0	368.9
87.45	421.0	368.9
87.46	396.0	368.9
87.47	378.0	368.9
87.48	371.0	368.9
87.49	374.0	368.8
87.5	380.0	368.8
87.51	388.0	368.8
87.52	377.0	368.8
87.53	391.0	368.8
87.54	399.0	368.8
87.55	394.0	368.7
87.56	387.0	368.7
87.57	398.0	368.7
87.58	400.0	368.7
87.59	385.0	368.7
87.6	387.0	368.7
87.61	383.0	368.6
87.62	369.0	368.6
87.63	394.0	368.6
87.64	412.0	368.6
87.65	409.0	368.6
87.66	413.0	368.6
87.67	410.0	368.5
87.68	394.0	368.5
87.69	389.0	368.5
87.7	395.0	368.5
87.71	390.0	368.5
87.72	387.0	368.5
87.73	387.0	368.5
87.74	395.0	368.4
87.75	407.0	368.4
87.76	407.0	368.4
87.77	417.0	368.4
87.78	418.0	368.4
87.79	396.0	368.4
87.8	386.0	368.4
87.81	387.0	368.4
87.82	396.0	368.3
87.83	404.0	368.3
87.84	396.0	368.3
87.85	417.0	368.3
87.86	420.0	368.3
87.87	390.0	368.3
87.88	373.0	368.3
87.89	395.0	368.3
87.9	409.0	368.3
87.91	403.0	368.2
87.92	415.0	368.2
87.93	405.0	368.2
87.94	393.0	368.2
87.95	403.0	368.2
87.96	407.0	368.2
87.97	407.0	368.2
87.98	398.0	368.2
87.99	390.0	368.2
88.0	389.0	368.2
88.01	393.0	368.1
88.02	397.0	368.1
88.03	404.0	368.1
88.04	403.0	368.1
88.05	404.0	368.1
88.06	404.0	368.1
88.07	397.0	368.1
88.08	394.0	368.1
88.09	395.0	368.1
88.1	396.0	368.1
88.11	393.0	368.1
88.12	385.0	368.1
88.13	392.0	368.1
88.14	387.0	368.1
88.15	397.0	368.0
88.16	413.0	368.0
88.17	412.0	368.0
88.18	417.0	368.0
88.19	411.0	368.0
88.2	389.0	368.0
88.21	388.0	368.0
88.22	401.0	368.0
88.23	415.0	368.0
88.24	402.0	368.0
88.25	392.0	368.0
88.26	402.0	368.0
88.27	403.0	368.0
88.28	406.0	368.0
88.29	401.0	368.0
88.3	393.0	368.0
88.31	375.0	368.0
88.32	394.0	368.0
88.33	390.0	368.0
88.34	387.0	368.0
88.35	402.0	368.0
88.36	398.0	368.0
88.37	406.0	368.0
88.38	403.0	368.0
88.39	399.0	368.0
88.4	398.0	368.0
88.41	391.0	368.0
88.42	389.0	368.0
88.43	383.0	368.0
88.44	393.0	368.0
88.45	403.0	368.0
88.46	392.0	368.0
88.47	398.0	368.0
88.48	396.0	368.0
88.49	397.0	368.0
88.5	411.0	368.0
88.51	402.0	368.0
88.52	400.0	368.0
88.53	389.0	368.0
88.54	378.0	368.0
88.55	381.0	368.0
88.56	397.0	368.0
88.57	400.0	368.0
88.58	387.0	368.0
88.59	389.0	368.0
88.6	395.0	368.0
88.61	381.0	368.0
88.62	397.0	368.0
88.63	401.0	368.0
88.64	373.0	368.0
88.65	371.0	368.0
88.66	373.0	368.0
88.67	397.0	368.0
88.68	398.0	368.0
88.69	393.0	368.0
88.7	399.0	368.0
88.71	383.0	368.0
88.72	371.0	368.0
88.73	382.0	368.0
88.74	395.0	368.0
88.75	417.0	368.0
88.76	419.0	368.0
88.77	388.0	368.0
88.78	370.0	368.0
88.79	387.0	368.0
88.8	401.0	368.0
88.81	401.0	368.0
88.82	391.0	368.0
88.83	397.0	368.1
88.84	384.0	368.1
88.85	376.0	368.1
88.86	384.0	368.1
88.87	399.0	368.1
88.88	393.0	368.1
88.89	378.0	368.1
88.9	385.0	368.1
88.91	385.0	368.1
88.92	394.0	368.1
88.93	399.0	368.1
88.94	390.0	368.1
88.95	397.0	368.1
88.96	412.0	368.1
88.97	424.0	368.1
88.98	411.0	368.2
88.99	404.0	368.2
89.0	398.0	368.2
89.01	381.0	368.2
89.02	375.0	368.2
89.03	385.0	368.2
89.04	385.0	368.2
89.05	387.0	368.2
89.06	398.0	368.2
89.07	393.0	368.2
89.08	387.0	368.2
89.09	376.0	368.2
89.1	374.0	368.3
89.11	403.0	368.3
89.12	421.0	368.3
89.13	417.0	368.3
89.14	411.0	368.3
89.15	388.0	368.3
89.16	373.0	368.3
89.17	390.0	368.3
89.18	418.0	368.3
89.19	411.0	368.3
89.2	401.0	368.4
89.21	393.0	368.4
89.22	385.0	368.4
89.23	373.0	368.4
89.24	388.0	368.4
89.25	400.0	368.4
89.26	409.0	368.4
89.27	406.0	368.4
89.28	403.0	368.5
89.29	414.0	368.5
89.3	403.0	368.5
89.31	394.0	368.5
89.32	390.0	368.5
89.33	381.0	368.5
89.34	383.0	368.5
89.35	388.0	368.5
89.36	394.0	368.5
89.37	397.0	368.6
89.38	405.0	368.6
89.39	406.0	368.6
89.4	406.0	368.6
89.41	408.0	368.6
89.42	405.0	368.6
89.43	401.0	368.6
89.44	393.0	368.7
89.45	385.0	368.7
89.46	390.0	368.7
89.47	402.0	368.7
89.48	405.0	368.7
89.49	402.0	368.7
89.5	407.0	368.7
89.51	413.0	368.8
89.52	401.0	368.8
89.53	391.0	368.8
89.54	411.0	368.8
89.55	402.0	368.8
89.56	392.0	368.8
89.57	406.0	368.8
89.58	406.0	368.9
89.59	400.0	368.9
89.6	398.0	368.9
89.61	404.0	368.9
89.62	407.0	368.9
89.63	415.0	368.9
89.64	413.0	369.0
89.65	401.0	369.0
89.66	383.0	369.0
89.67	374.0	369.0
89.68	385.0	369.0
89.69	409.0	369.0
89.7	436.0	369.1
89.71	416.0	369.1
89.72	377.0	369.1
89.73	384.0	369.1
89.74	418.0	369.1
89.75	442.0	369.1
89.76	428.0	369.2
89.77	400.0	369.2
89.78	401.0	369.2
89.79	396.0	369.2
89.8	399.0	369.2
89.81	413.0	369.3
89.82	415.0	369.3
89.83	414.0	369.3
89.84	431.0	369.3
89.85	438.0	369.3
89.86	418.0	369.3
89.87	415.0	369.4
89.88	417.0	369.4
89.89	404.0	369.4
89.9	398.0	369.4
89.91	399.0	369.4
89.92	401.0	369.5
89.93	402.0	369.5
89.94	396.0	369.5
89.95	376.0	369.5
89.96	381.0	369.5
89.97	401.0	369.6
89.98	410.0	369.6
89.99	401.0	369.6
90.0	396.0	369.6
90.01	388.0	369.6
90.02	385.0	369.7
90.03	408.0	369.7
90.04	413.0	369.7
90.05	402.0	369.7
90.06	397.0	369.7
90.07	397.0	369.8
90.08	410.0	369.8
90.09	412.0	369.8
90.1	396.0	369.8
90.11	405.0	369.8
90.12	413.0	369.9
90.13	405.0	369.9
90.14	399.0	369.9
90.15	400.0	369.9
90.16	401.0	370.0
90.17	405.0	370.0
90.18	406.0	370.0
90.19	410.0	370.0
90.2	399.0	370.0
90.21	389.0	370.1
90.22	401.0	370.1
90.23	423.0	370.1
90.24	421.0	370.1
90.25	411.0	370.2
90.26	422.0	370.2
90.27	435.0	370.2
90.28	421.0	370.2
90.29	416.0	370.2
90.3	415.0	370.3
90.31	402.0	370.3
90.32	405.0	370.3
90.33	412.0	370.3
90.34	415.0	370.4
90.35	411.0	370.4
90.36	400.0	370.4
90.37	400.0	370.4
90.38	410.0	370.5
90.39	418.0	370.5
90.4	408.0	370.5
90.41	390.0	370.5
90.42	391.0	370.5
90.43	401.0	370.6
90.44	402.0	370.6
90.45	399.0	370.6
90.46	395.0	370.6
90.47	387.0	370.7
90.48	398.0	370.7
90.49	407.0	370.7
90.5	390.0	370.7
90.51	380.0	370.8
90.52	378.0	370.8
90.53	369.0	370.8
90.54	369.0	370.8
90.55	392.0	370.9
90.56	401.0	370.9
90.57	384.0	370.9
90.58	396.0	370.9
90.59	413.0	371.0
90.6	414.0	371.0
90.61	405.0	371.0
90.62	414.0	371.0
90.63	405.0	371.1
90.64	389.0	371.1
90.65	389.0	371.1
90.66	382.0	371.1
90.67	384.0	371.2
90.68	409.0	371.2
90.69	416.0	371.2
90.7	390.0	371.2
90.71	374.0	371.3
90.72	379.0	371.3
90.73	393.0	371.3
90.74	400.0	371.4
90.75	380.0	371.4
90.76	373.0	371.4
90.77	382.0	371.4
90.78	398.0	371.5
90.79	414.0	371.5
90.8	392.0	371.5
90.81	365.0	371.5
90.82	374.0	371.6
90.83	404.0	371.6
90.84	407.0	371.6
90.85	404.0	371.6
90.86	421.0	371.7
90.87	404.0	371.7
90.88	380.0	371.7
90.89	391.0	371.8
90.9	392.0	371.8
90.91	382.0	371.8
90.92	390.0	371.8
90.93	395.0	371.9
90.94	389.0	371.9
90.95	382.0	371.9
90.96	397.0	371.9
90.97	408.0	372.0
90.98	391.0	372.0
90.99	390.0	372.0
91.0	396.0	372.1
91.01	406.0	372.1
91.02	408.0	372.1
91.03	405.0	372.1
91.04	405.0	372.2
91.05	399.0	372.2
91.06	389.0	372.2
91.07	380.0	372.3
91.08	382.0	372.3
91.09	390.0	372.3
91.1	389.0	372.3
91.11	396.0	372.4
91.12	404.0	372.4
91.13	390.0	372.4
91.14	390.0	372.5
91.15	400.0	372.5
91.16	405.0	372.5
91.17	400.0	372.5
91.18	406.0	372.6
91.19	411.0	372.6
91.2	394.0	372.6
91.21	384.0	372.7
91.22	392.0	372.7
91.23	396.0	372.7
91.24	392.0	372.7
91.25	387.0	372.8
91.26	399.0	372.8
91.27	407.0	372.8
91.28	405.0	372.9
91.29	404.0	372.9
91.3	397.0	372.9
91.31	396.0	372.9
91.32	397.0	373.0
91.33	401.0	373.0
91.34	408.0	373.0
91.35	401.0	373.1
91.36	390.0	373.1
91.37	389.0	373.1
91.38	391.0	373.2
91.39	398.0	373.2
91.4	407.0	373.2
91.41	407.0	373.2
91.42	415.0	373.3
91.43	416.0	373.3
91.44	411.0	373.3
91.45	411.0	373.4
91.46	404.0	373.4
91.47	395.0	373.4
91.48	379.0	373.5
91.49	378.0	373.5
91.5	400.0	373.5
91.51	405.0	373.5
91.52	405.0	373.6
91.53	410.0	373.6
91.54	394.0	373.6
91.55	387.0	373.7
91.56	396.0	373.7
91.57	397.0	373.7
91.58	394.0	373.8
91.59	392.0	373.8
91.6	391.0	373.8
91.61	389.0	373.8
91.62	388.0	373.9
91.63	394.0	373.9
91.64	400.0	373.9
91.65	396.0	374.0
91.66	391.0	374.0
91.67	381.0	374.0
91.68	381.0	374.1
91.69	389.0	374.1
91.7	392.0	374.1
91.71	398.0	374.1
91.72	411.0	374.2
91.73	422.0	374.2
91.74	417.0	374.2
91.75	402.0	374.3
91.76	383.0	374.3
91.77	379.0	374.3
91.78	388.0	374.4
91.79	389.0	374.4
91.8	369.0	374.4
91.81	367.0	374.5
91.82	377.0	374.5
91.83	377.0	374.5
91.84	392.0	374.6
91.85	402.0	374.6
91.86	399.0	374.6
91.87	395.0	374.6
91.88	388.0	374.7
91.89	376.0	374.7
91.9	374.0	374.7
91.91	394.0	374.8
91.92	391.0	374.8
91.93	381.0	374.8
91.94	383.0	374.9
91.95	374.0	374.9
91.96	393.0	374.9
91.97	412.0	375.0
91.98	399.0	375.0
91.99	404.0	375.0
92.0	406.0	375.0
92.01	401.0	375.1
92.02	391.0	375.1
92.03	390.0	375.1
92.04	399.0	375.2
92.05	399.0	375.2
92.06	391.0	375.2
92.07	405.0	375.3
92.08	422.0	375.3
92.09	409.0	375.3
92.1	404.0	375.4
92.11	407.0	375.4
92.12	390.0	375.4
92.13	393.0	375.5
92.14	395.0	375.5
92.15	375.0	375.5
92.16	361.0	375.5
92.17	380.0	375.6
92.18	402.0	375.6
92.19	398.0	375.6
92.2	386.0	375.7
92.21	389.0	375.7
92.22	405.0	375.7
92.23	395.0	375.8
92.24	380.0	375.8
92.25	380.0	375.8
92.26	397.0	375.9
92.27	402.0	375.9
92.28	400.0	375.9
92.29	402.0	376.0
92.3	406.0	376.0
92.31	416.0	376.0
92.32	424.0	376.1
92.33	396.0	376.1
92.34	369.0	376.1
92.35	384.0	376.1
92.36	396.0	376.2
92.37	386.0	376.2
92.38	381.0	376.2
92.39	374.0	376.3
92.4	382.0	376.3
92.41	386.0	376.3
92.42	390.0	376.4
92.43	393.0	376.4
92.44	382.0	376.4
92.45	383.0	376.5
92.46	386.0	376.5
92.47	375.0	376.5
92.48	372.0	376.6
92.49	386.0	376.6
92.5	396.0	376.6
92.51	403.0	376.6
92.52	406.0	376.7
92.53	411.0	376.7
92.54	395.0	376.7
92.55	372.0	376.8
92.56	375.0	376.8
92.57	387.0	376.8
92.58	391.0	376.9
92.59	387.0	376.9
92.6	395.0	376.9
92.61	389.0	377.0
92.62	368.0	377.0
92.63	377.0	377.0
92.64	392.0	377.1
92.65	407.0	377.1
92.66	413.0	377.1
92.67	400.0	377.2
92.68	390.0	377.2
92.69	396.0	377.2
92.7	405.0	377.2
92.71	416.0	377.3
92.72	432.0	377.3
92.73	433.0	377.3
92.74	423.0	377.4
92.75	407.0	377.4
92.76	398.0	377.4
92.77	404.0	377.5
92.78	409.0	377.5
92.79	410.0	377.5
92.8	406.0	377.6
92.81	411.0	377.6
92.82	423.0	377.6
92.83	416.0	377.7
92.84	388.0	377.7
92.85	388.0	377.7
92.86	403.0	377.8
92.87	411.0	377.8
92.88	399.0	377.8
92.89	396.0	377.8
92.9	410.0	377.9
92.91	406.0	377.9
92.92	388.0	377.9
92.93	394.0	378.0
92.94	410.0	378.0
92.95	405.0	378.0
92.96	402.0	378.1
92.97	428.0	378.1
92.98	435.0	378.1
92.99	418.0	378.2
93.0	414.0	378.2
93.01	426.0	378.2
93.02	428.0	378.3
93.03	425.0	378.3
93.04	423.0	378.3
93.05	412.0	378.4
93.06	416.0	378.4
93.07	411.0	378.4
93.08	411.0	378.4
93.09	418.0	378.5
93.1	424.0	378.5
93.11	423.0	378.5
93.12	418.0	378.6
93.13	422.0	378.6
93.14	419.0	378.6
93.15	405.0	378.7
93.16	407.0	378.7
93.17	420.0	378.7
93.18	430.0	378.8
93.19	430.0	378.8
93.2	433.0	378.8
93.21	441.0	378.9
93.22	434.0	378.9
93.23	421.0	378.9
93.24	423.0	379.0
93.25	424.0	379.0
93.26	418.0	379.0
93.27	430.0	379.0
93.28	451.0	379.1
93.29	432.0	379.1
93.3	415.0	379.1
93.31	427.0	379.2
93.32	424.0	379.2
93.33	413.0	379.2
93.34	430.0	379.3
93.35	441.0	379.3
93.36	446.0	379.3
93.37	435.0	379.4
93.38	426.0	379.4
93.39	435.0	379.4
93.4	431.0	379.5
93.41	437.0	379.5
93.42	451.0	379.5
93.43	466.0	379.6
93.44	446.0	379.6
93.45	451.0	379.6
93.46	451.0	379.7
93.47	442.0	379.7
93.48	447.0	379.7
93.49	457.0	379.7
93.5	466.0	379.8
93.51	463.0	379.8
93.52	452.0	379.8
93.53	443.0	379.9
93.54	447.0	379.9
93.55	447.0	379.9
93.56	451.0	380.0
93.57	450.0	380.0
93.58	436.0	380.0
93.59	429.0	380.1
93.6	447.0	380.1
93.61	459.0	380.1
93.62	460.0	380.2
93.63	469.0	380.2
93.64	482.0	380.2
93.65	485.0	380.3
93.66	469.0	380.3
93.67	454.0	380.3
93.68	450.0	380.4
93.69	429.0	380.4
93.7	436.0	380.4
93.71	453.0	380.4
93.72	468.0	380.5
93.73	480.0	380.5
93.74	478.0	380.5
93.75	477.0	380.6
93.76	483.0	380.6
93.77	471.0	380.6
93.78	470.0	380.7
93.79	469.0	380.7
93.8	469.0	380.7
93.81	470.0	380.8
93.82	470.0	380.8
93.83	480.0	380.8
93.84	496.0	380.9
93.85	483.0	380.9
93.86	482.0	380.9
93.87	468.0	381.0
93.88	460.0	381.0
93.89	487.0	381.0
93.9	511.0	381.1
93.91	484.0	381.1
93.92	461.0	381.1
93.93	484.0	381.2
93.94	488.0	381.2
93.95	470.0	381.2
93.96	465.0	381.2
93.97	471.0	381.3
93.98	474.0	381.3
93.99	470.0	381.3
94.0	475.0	381.4
94.01	484.0	381.4
94.02	495.0	381.4
94.03	485.0	381.5
94.04	489.0	381.5
94.05	502.0	381.5
94.06	505.0	381.6
94.07	516.0	381.6
94.08	510.0	381.6
94.09	490.0	381.7
94.1	484.0	381.7
94.11	482.0	381.7
94.12	500.0	381.8
94.13	510.0	381.8
94.14	518.0	381.8
94.15	512.0	381.9
94.16	503.0	381.9
94.17	507.0	381.9
94.18	514.0	382.0
94.19	497.0	382.0
94.2	491.0	382.0
94.21	506.0	382.0
94.22	526.0	382.1
94.23	530.0	382.1
94.24	529.0	382.1
94.25	537.0	382.2
94.26	525.0	382.2
94.27	516.0	382.2
94.28	516.0	382.3
94.29	547.0	382.3
94.3	559.0	382.3
94.31	534.0	382.4
94.32	532.0	382.4
94.33	535.0	382.4
94.34	545.0	382.5
94.35	523.0	382.5
94.36	523.0	382.5
94.37	539.0	382.6
94.38	550.0	382.6
94.39	538.0	382.6
94.4	517.0	382.7
94.41	547.0	382.7
94.42	562.0	382.7
94.43	546.0	382.8
94.44	527.0	382.8
94.45	535.0	382.8
94.46	543.0	382.9
94.47	541.0	382.9
94.48	532.0	382.9
94.49	548.0	382.9
94.5	580.0	383.0
94.51	599.0	383.0
94.52	585.0	383.0
94.53	548.0	383.1
94.54	564.0	383.1
94.55	588.0	383.1
94.56	582.0	383.2
94.57	540.0	383.2
94.58	531.0	383.2
94.59	559.0	383.3
94.6	572.0	383.3
94.61	572.0	383.3
94.62	584.0	383.4
94.63	581.0	383.4
94.64	579.0	383.4
94.65	574.0	383.5
94.66	574.0	383.5
94.67	568.0	383.5
94.68	581.0	383.6
94.69	582.0	383.6
94.7	573.0	383.6
94.71	563.0	383.7
94.72	594.0	383.7
94.73	598.0	383.7
94.74	598.0	383.8
94.75	598.0	383.8
94.76	593.0	383.8
94.77	574.0	383.8
94.78	576.0	383.9
94.79	583.0	383.9
94.8	584.0	383.9
94.81	571.0	384.0
94.82	585.0	384.0
94.83	610.0	384.0
94.84	595.0	384.1
94.85	580.0	384.1
94.86	603.0	384.1
94.87	598.0	384.2
94.88	563.0	384.2
94.89	570.0	384.2
94.9	586.0	384.3
94.91	570.0	384.3
94.92	566.0	384.3
94.93	598.0	384.4
94.94	593.0	384.4
94.95	579.0	384.4
94.96	565.0	384.5
94.97	564.0	384.5
94.98	576.0	384.5
94.99	575.0	384.6
95.0	552.0	384.6
95.01	586.0	384.6
95.02	590.0	384.7
95.03	581.0	384.7
95.04	596.0	384.7
95.05	595.0	384.8
95.06	577.0	384.8
95.07	565.0	384.8
95.08	565.0	384.8
95.09	589.0	384.9
95.1	597.0	384.9
95.11	582.0	384.9
95.12	569.0	385.0
95.13	592.0	385.0
95.14	591.0	385.0
95.15	587.0	385.1
95.16	590.0	385.1
95.17	588.0	385.1
95.18	597.0	385.2
95.19	588.0	385.2
95.2	570.0	385.2
95.21	586.0	385.3
95.22	615.0	385.3
95.23	597.0	385.3
95.24	581.0	385.4
95.25	570.0	385.4
95.26	567.0	385.4
95.27	585.0	385.5
95.28	600.0	385.5
95.29	592.0	385.5
95.3	608.0	385.6
95.31	598.0	385.6
95.32	576.0	385.6
95.33	579.0	385.7
95.34	591.0	385.7
95.35	600.0	385.7
95.36	589.0	385.8
95.37	591.0	385.8
95.38	589.0	385.8
95.39	590.0	385.9
95.4	566.0	385.9
95.41	579.0	385.9
95.42	591.0	385.9
95.43	596.0	386.0
95.44	597.0	386.0
95.45	588.0	386.0
95.46	584.0	386.1
95.47	590.0	386.1
95.48	575.0	386.1
95.49	574.0	386.2
95.5	587.0	386.2
95.51	597.0	386.2
95.52	589.0	386.3
95.53	593.0	386.3
95.54	573.0	386.3
95.55	556.0	386.4
95.56	567.0	386.4
95.57	591.0	386.4
95.58	598.0	386.5
95.59	613.0	386.5
95.6	618.0	386.5
95.61	618.0	386.6
95.62	591.0	386.6
95.63	577.0	386.6
95.64	565.0	386.7
95.65	559.0	386.7
95.66	573.0	386.7
95.67	587.0	386.8
95.68	601.0	386.8
95.69	575.0	386.8
95.7	570.0	386.9
95.71	584.0	386.9
95.72	573.0	386.9
95.73	590.0	387.0
95.74	574.0	387.0
95.75	567.0	387.0
95.76	573.0	387.1
95.77	582.0	387.1
95.78	597.0	387.1
95.79	564.0	387.1
95.8	567.0	387.2
95.81	567.0	387.2
95.82	560.0	387.2
95.83	562.0	387.3
95.84	578.0	387.3
95.85	594.0	387.3
95.86	574.0	387.4
95.87	551.0	387.4
95.88	549.0	387.4
95.89	546.0	387.5
95.9	558.0	387.5
95.91	539.0	387.5
95.92	535.0	387.6
95.93	559.0	387.6
95.94	538.0	387.6
95.95	530.0	387.7
95.96	536.0	387.7
95.97	510.0	387.7
95.98	514.0	387.8
95.99	537.0	387.8
96.0	530.0	387.8
96.01	520.0	387.9
96.02	504.0	387.9
96.03	519.0	387.9
96.04	518.0	388.0
96.05	501.0	388.0
96.06	515.0	388.0
96.07	535.0	388.1
96.08	538.0	388.1
96.09	516.0	388.1
96.1	512.0	388.2
96.11	523.0	388.2
96.12	512.0	388.2
96.13	500.0	388.3
96.14	516.0	388.3
96.15	522.0	388.3
96.16	524.0	388.4
96.17	511.0	388.4
96.18	512.0	388.4
96.19	515.0	388.4
96.2	505.0	388.5
96.21	499.0	388.5
96.22	515.0	388.5
96.23	521.0	388.6
96.24	507.0	388.6
96.25	496.0	388.6
96.26	500.0	388.7
96.27	488.0	388.7
96.28	484.0	388.7
96.29	484.0	388.8
96.3	488.0	388.8
96.31	500.0	388.8
96.32	508.0	388.9
96.33	492.0	388.9
96.34	461.0	388.9
96.35	473.0	389.0
96.36	475.0	389.0
96.37	464.0	389.0
96.38	474.0	389.1
96.39	461.0	389.1
96.4	465.0	389.1
96.41	449.0	389.2
96.42	442.0	389.2
96.43	460.0	389.2
96.44	470.0	389.3
96.45	464.0	389.3
96.46	455.0	389.3
96.47	442.0	389.4
96.48	445.0	389.4
96.49	468.0	389.4
96.5	467.0	389.5
96.51	467.0	389.5
96.52	455.0	389.5
96.53	460.0	389.6
96.54	455.0	389.6
96.55	444.0	389.6
96.56	445.0	389.7
96.57	453.0	389.7
96.58	462.0	389.7
96.59	454.0	389.8
96.6	432.0	389.8
96.61	438.0	389.8
96.62	428.0	389.9
96.63	423.0	389.9
96.64	432.0	389.9
96.65	457.0	389.9
96.66	463.0	390.0
96.67	434.0	390.0
96.68	435.0	390.0
96.69	438.0	390.1
96.7	443.0	390.1
96.71	455.0	390.1
96.72	439.0	390.2
96.73	432.0	390.2
96.74	441.0	390.2
96.75	440.0	390.3
96.76	422.0	390.3
96.77	433.0	390.3
96.78	427.0	390.4
96.79	417.0	390.4
96.8	427.0	390.4
96.81	444.0	390.5
96.82	414.0	390.5
96.83	391.0	390.5
96.84	424.0	390.6
96.85	438.0	390.6
96.86	450.0	390.6
96.87	440.0	390.7
96.88	423.0	390.7
96.89	418.0	390.7
96.9	403.0	390.8
96.91	413.0	390.8
96.92	426.0	390.8
96.93	445.0	390.9
96.94	455.0	390.9
96.95	440.0	390.9
96.96	419.0	391.0
96.97	411.0	391.0
96.98	422.0	391.0
96.99	414.0	391.1
97.0	416.0	391.1
97.01	431.0	391.1
97.02	450.0	391.2
97.03	439.0	391.2
97.04	450.0	391.2
97.05	447.0	391.3
97.06	422.0	391.3
97.07	420.0	391.3
97.08	440.0	391.4
97.09	417.0	391.4
97.1	397.0	391.4
97.11	408.0	391.5
97.12	411.0	391.5
97.13	408.0	391.5
97.14	410.0	391.5
97.15	413.0	391.6
97.16	428.0	391.6
97.17	446.0	391.6
97.18	430.0	391.7
97.19	424.0	391.7
97.2	400.0	391.7
97.21	386.0	391.8
97.22	398.0	391.8
97.23	418.0	391.8
97.24	411.0	391.9
97.25	417.0	391.9
97.26	416.0	391.9
97.27	418.0	392.0
97.28	412.0	392.0
97.29	405.0	392.0
97.3	416.0	392.1
97.31	419.0	392.1
97.32	385.0	392.1
97.33	398.0	392.2
97.34	422.0	392.2
97.35	426.0	392.2
97.36	420.0	392.3
97.37	401.0	392.3
97.38	409.0	392.3
97.39	412.0	392.4
97.4	414.0	392.4
97.41	415.0	392.4
97.42	438.0	392.5
97.43	429.0	392.5
97.44	432.0	392.5
97.45	423.0	392.6
97.46	423.0	392.6
97.47	416.0	392.6
97.48	425.0	392.7
97.49	408.0	392.7
97.5	408.0	392.7
97.51	401.0	392.8
97.52	385.0	392.8
97.53	402.0	392.8
97.54	411.0	392.9
97.55	414.0	392.9
97.56	437.0	392.9
97.57	429.0	393.0
97.58	417.0	393.0
97.59	419.0	393.0
97.6	411.0	393.1
97.61	402.0	393.1
97.62	415.0	393.1
97.63	441.0	393.2
97.64	419.0	393.2
97.65	412.0	393.2
97.66	418.0	393.3
97.67	418.0	393.3
97.68	417.0	393.3
97.69	449.0	393.4
97.7	440.0	393.4
97.71	404.0	393.4
97.72	404.0	393.4
97.73	422.0	393.5
97.74	438.0	393.5
97.75	448.0	393.5
97.76	424.0	393.6
97.77	424.0	393.6
97.78	434.0	393.6
97.79	429.0	393.7
97.8	417.0	393.7
97.81	430.0	393.7
97.82	441.0	393.8
97.83	408.0	393.8
97.84	399.0	393.8
97.85	405.0	393.9
97.86	413.0	393.9
97.87	428.0	393.9
97.88	449.0	394.0
97.89	418.0	394.0
97.9	443.0	394.0
97.91	453.0	394.1
97.92	439.0	394.1
97.93	408.0	394.1
97.94	404.0	394.2
97.95	406.0	394.2
97.96	437.0	394.2
97.97	418.0	394.3
97.98	398.0	394.3
97.99	435.0	394.3
98.0	436.0	394.4
98.01	420.0	394.4
98.02	448.0	394.4
98.03	471.0	394.5
98.04	462.0	394.5
98.05	449.0	394.5
98.06	419.0	394.6
98.07	418.0	394.6
98.08	437.0	394.6
98.09	428.0	394.7
98.1	434.0	394.7
98.11	429.0	394.7
98.12	432.0	394.8
98.13	456.0	394.8
98.14	469.0	394.8
98.15	447.0	394.9
98.16	427.0	394.9
98.17	415.0	394.9
98.18	412.0	395.0
98.19	444.0	395.0
98.2	467.0	395.0
98.21	447.0	395.1
98.22	447.0	395.1
98.23	457.0	395.1
98.24	437.0	395.2
98.25	434.0	395.2
98.26	450.0	395.2
98.27	458.0	395.3
98.28	451.0	395.3
98.29	456.0	395.3
98.3	443.0	395.4
98.31	458.0	395.4
98.32	442.0	395.4
98.33	460.0	395.5
98.34	470.0	395.5
98.35	460.0	395.5
98.36	448.0	395.6
98.37	447.0	395.6
98.38	459.0	395.6
98.39	474.0	395.6
98.4	479.0	395.7
98.41	463.0	395.7
98.42	467.0	395.7
98.43	460.0	395.8
98.44	469.0	395.8
98.45	453.0	395.8
98.46	474.0	395.9
98.47	508.0	395.9
98.48	493.0	395.9
98.49	467.0	396.0
98.5	475.0	396.0
98.51	478.0	396.0
98.52	495.0	396.1
98.53	446.0	396.1
98.54	442.0	396.1
98.55	454.0	396.2
98.56	471.0	396.2
98.57	485.0	396.2
98.58	486.0	396.3
98.59	469.0	396.3
98.6	468.0	396.3
98.61	469.0	396.4
98.62	462.0	396.4
98.63	461.0	396.4
98.64	497.0	396.5
98.65	496.0	396.5
98.66	466.0	396.5
98.67	480.0	396.6
98.68	470.0	396.6
98.69	484.0	396.6
98.7	502.0	396.7
98.71	494.0	396.7
98.72	481.0	396.7
98.73	492.0	396.8
98.74	503.0	396.8
98.75	503.0	396.8
98.76	488.0	396.9
98.77	500.0	396.9
98.78	496.0	396.9
98.79	489.0	397.0
98.8	484.0	397.0
98.81	467.0	397.0
98.82	470.0	397.1
98.83	468.0	397.1
98.84	481.0	397.1
98.85	487.0	397.2
98.86	502.0	397.2
98.87	511.0	397.2
98.88	476.0	397.3
98.89	489.0	397.3
98.9	481.0	397.3
98.91	490.0	397.4
98.92	482.0	397.4
98.93	492.0	397.4
98.94	490.0	397.5
98.95	465.0	397.5
98.96	462.0	397.5
98.97	464.0	397.6
98.98	495.0	397.6
98.99	490.0	397.6
99.0	489.0	397.7
99.01	482.0	397.7
99.02	484.0	397.7
99.03	496.0	397.8
99.04	512.0	397.8
99.05	479.0	397.8
99.06	474.0	397.9
99.07	483.0	397.9
99.08	469.0	397.9
99.09	463.0	398.0
99.1	491.0	398.0
99.11	473.0	398.0
99.12	456.0	398.1
99.13	453.0	398.1
99.14	454.0	398.1
99.15	480.0	398.1
99.16	471.0	398.2
99.17	493.0	398.2
99.18	474.0	398.2
99.19	488.0	398.3
99.2	496.0	398.3
99.21	492.0	398.3
99.22	474.0	398.4
99.23	479.0	398.4
99.24	481.0	398.4
99.25	487.0	398.5
99.26	474.0	398.5
99.27	467.0	398.5
99.28	479.0	398.6
99.29	460.0	398.6
99.3	481.0	398.6
99.31	460.0	398.7
99.32	471.0	398.7
99.33	461.0	398.7
99.34	455.0	398.8
99.35	479.0	398.8
99.36	474.0	398.8
99.37	468.0	398.9
99.38	461.0	398.9
99.39	460.0	398.9
99.4	450.0	399.0
99.41	467.0	399.0
99.42	443.0	399.0
99.43	464.0	399.1
99.44	476.0	399.1
99.45	481.0	399.1
99.46	502.0	399.2
99.47	494.0	399.2
99.48	474.0	399.2
99.49	487.0	399.3
99.5	471.0	399.3
99.51	442.0	399.3
99.52	480.0	399.4
99.53	474.0	399.4
99.54	448.0	399.4
99.55	472.0	399.5
99.56	487.0	399.5
99.57	456.0	399.5
99.58	464.0	399.6
99.59	443.0	399.6
99.6	453.0	399.6
99.61	468.0	399.7
99.62	478.0	399.7
99.63	476.0	399.7
99.64	469.0	399.8
99.65	440.0	399.8
99.66	449.0	399.8
99.67	484.0	399.9
99.68	465.0	399.9
99.69	455.0	399.9
99.7	493.0	400.0
99.71	476.0	400.0
99.72	459.0	400.0
99.73	453.0	400.1
99.74	465.0	400.1
99.75	450.0	400.1
99.76	461.0	400.2
99.77	471.0	400.2
99.78	474.0	400.2
99.79	460.0	400.3
99.8	441.0	400.3
99.81	461.0	400.3
99.82	472.0	400.4
99.83	462.0	400.4
99.84	451.0	400.4
99.85	432.0	400.5
99.86	454.0	400.5
99.87	469.0	400.5
99.88	484.0	400.6
99.89	472.0	400.6
99.9	458.0	400.6
99.91	462.0	400.7
99.92	463.0	400.7
99.93	441.0	400.7
99.94	441.0	400.8
99.95	431.0	400.8
99.96	441.0	400.8
99.97	463.0	400.8
99.98	451.0	400.9
99.99	473.0	400.9
100.0	457.0	400.9
