Single_Mn2O3_long_sc
Wavelength = 1.54059 Ã… (Cu)
10.0	5377
10.01	5217
10.02	5155
10.03	5220
10.04	5172
10.05	5197
10.06	5224
10.07	5203
10.08	5276
10.09	5313
10.1	5311
10.11	5254
10.12	5242
10.13	5138
10.14	5236
10.15	5300
10.16	5297
10.17	5272
10.18	5346
10.19	5328
10.2	5286
10.21	5280
10.22	5290
10.23	5353
10.24	5303
10.25	5328
10.26	5341
10.27	5403
10.28	5409
10.29	5366
10.3	5387
10.31	5419
10.32	5435
10.33	5488
10.34	5412
10.35	5382
10.36	5431
10.37	5412
10.38	5498
10.39	5428
10.4	5471
10.41	5503
10.42	5505
10.43	5457
10.44	5460
10.45	5502
10.46	5480
10.47	5495
10.48	5540
10.49	5456
10.5	5585
10.51	5599
10.52	5517
10.53	5414
10.54	5560
10.55	5612
10.56	5669
10.57	5678
10.58	5612
10.59	5461
10.6	5530
10.61	5655
10.62	5646
10.63	5632
10.64	5566
10.65	5627
10.66	5695
10.67	5755
10.68	5764
10.69	5748
10.7	5817
10.71	5678
10.72	5661
10.73	5692
10.74	5804
10.75	5692
10.76	5745
10.77	5763
10.78	5675
10.79	5771
10.8	5804
10.81	5783
10.82	5795
10.83	5736
10.84	5824
10.85	5895
10.86	5810
10.87	5706
10.88	5757
10.89	5791
10.9	5831
10.91	5861
10.92	5830
10.93	5831
10.94	5836
10.95	5815
10.96	5834
10.97	5899
10.98	5900
10.99	5890
11.0	6009
11.01	5909
11.02	5963
11.03	5971
11.04	5928
11.05	5983
11.06	5925
11.07	6006
11.08	6182
11.09	6049
11.1	5956
11.11	6027
11.12	6050
11.13	6042
11.14	6097
11.15	6046
11.16	6117
11.17	6063
11.18	6120
11.19	6182
11.2	6115
11.21	6110
11.22	6061
11.23	6087
11.24	6029
11.25	6154
11.26	6231
11.27	6125
11.28	6083
11.29	6186
11.3	6259
11.31	6173
11.32	6115
11.33	6261
11.34	6183
11.35	6249
11.36	6338
11.37	6319
11.38	6299
11.39	6258
11.4	6309
11.41	6165
11.42	6161
11.43	6222
11.44	6279
11.45	6298
11.46	6412
11.47	6375
11.48	6384
11.49	6428
11.5	6364
11.51	6347
11.52	6317
11.53	6297
11.54	6435
11.55	6411
11.56	6297
11.57	6320
11.58	6453
11.59	6427
11.6	6425
11.61	6471
11.62	6367
11.63	6338
11.64	6457
11.65	6546
11.66	6555
11.67	6547
11.68	6540
11.69	6492
11.7	6469
11.71	6549
11.72	6535
11.73	6493
11.74	6483
11.75	6498
11.76	6608
11.77	6715
11.78	6571
11.79	6585
11.8	6632
11.81	6611
11.82	6554
11.83	6579
11.84	6573
11.85	6689
11.86	6589
11.87	6647
11.88	6811
11.89	6727
11.9	6602
11.91	6700
11.92	6751
11.93	6724
11.94	6754
11.95	6798
11.96	6858
11.97	6751
11.98	6772
11.99	6858
12.0	6819
12.01	6809
12.02	6763
12.03	6867
12.04	6868
12.05	6829
12.06	6962
12.07	6892
12.08	6818
12.09	6841
12.1	6883
12.11	6920
12.12	6878
12.13	6821
12.14	6876
12.15	6882
12.16	6859
12.17	6847
12.18	6908
12.19	6899
12.2	6995
12.21	6945
12.22	6975
12.23	7050
12.24	7010
12.25	7061
12.26	7132
12.27	7012
12.28	7008
12.29	7053
12.3	7063
12.31	7080
12.32	7114
12.33	7134
12.34	7178
12.35	7087
12.36	7066
12.37	7129
12.38	7186
12.39	7191
12.4	7181
12.41	7111
12.42	7189
12.43	7165
12.44	7104
12.45	7172
12.46	7296
12.47	7385
12.48	7324
12.49	7421
12.5	7421
12.51	7395
12.52	7438
12.53	7430
12.54	7474
12.55	7476
12.56	7407
12.57	7492
12.58	7480
12.59	7559
12.6	7618
12.61	7661
12.62	7551
12.63	7515
12.64	7609
12.65	7685
12.66	7775
12.67	7728
12.68	7708
12.69	7715
12.7	7726
12.71	7715
12.72	7773
12.73	7833
12.74	7882
12.75	7886
12.76	7869
12.77	7744
12.78	7780
12.79	7970
12.8	7940
12.81	8022
12.82	8139
12.83	7983
12.84	8011
12.85	8008
12.86	8052
12.87	8044
12.88	8053
12.89	8122
12.9	8147
12.91	8209
12.92	8304
12.93	8346
12.94	8365
12.95	8434
12.96	8375
12.97	8330
12.98	8315
12.99	8328
13.0	8464
13.01	8447
13.02	8541
13.03	8566
13.04	8599
13.05	8601
13.06	8603
13.07	8605
13.08	8714
13.09	8745
13.1	8852
13.11	8953
13.12	8943
13.13	8896
13.14	8886
13.15	8957
13.16	9091
13.17	9087
13.18	9117
13.19	9109
13.2	9186
13.21	9239
13.22	9240
13.23	9290
13.24	9427
13.25	9471
13.26	9510
13.27	9577
13.28	9369
13.29	9481
13.3	9670
13.31	9622
13.32	9694
13.33	9729
13.34	9735
13.35	9727
13.36	9717
13.37	9844
13.38	9893
13.39	9927
13.4	9992
13.41	10112
13.42	10191
13.43	10114
13.44	10068
13.45	10209
13.46	10336
13.47	10337
13.48	10341
13.49	10445
13.5	10475
13.51	10483
13.52	10465
13.53	10516
13.54	10696
13.55	10786
13.56	10862
13.57	10828
13.58	10870
13.59	10878
13.6	10987
13.61	10935
13.62	10924
13.63	10992
13.64	11158
13.65	11207
13.66	11161
13.67	11237
13.68	11344
13.69	11273
13.7	11348
13.71	11403
13.72	11479
13.73	11570
13.74	11747
13.75	11687
13.76	11688
13.77	11723
13.78	11779
13.79	11862
13.8	11830
13.81	11830
13.82	11893
13.83	11952
13.84	12025
13.85	12054
13.86	12090
13.87	12275
13.88	12363
13.89	12451
13.9	12423
13.91	12462
13.92	12389
13.93	12542
13.94	12553
13.95	12513
13.96	12572
13.97	12760
13.98	12758
13.99	12798
14.0	12788
14.01	12790
14.02	12806
14.03	12820
14.04	12903
14.05	12845
14.06	12868
14.07	12992
14.08	13041
14.09	13131
14.1	13182
14.11	13283
14.12	13349
14.13	13261
14.14	13132
14.15	13347
14.16	13455
14.17	13340
14.18	13344
14.19	13348
14.2	13541
14.21	13591
14.22	13578
14.23	13530
14.24	13534
14.25	13570
14.26	13598
14.27	13624
14.28	13683
14.29	13658
14.3	13645
14.31	13725
14.32	13681
14.33	13598
14.34	13693
14.35	13762
14.36	13742
14.37	13640
14.38	13698
14.39	13739
14.4	13856
14.41	13941
14.42	14001
14.43	14019
14.44	13904
14.45	13983
14.46	14039
14.47	14019
14.48	14079
14.49	13976
14.5	14063
14.51	14120
14.52	14107
14.53	14124
14.54	14038
14.55	13982
14.56	14053
14.57	13924
14.58	14069
14.59	14121
14.6	14075
14.61	14008
14.62	13972
14.63	14030
14.64	14073
14.65	14125
14.66	14140
14.67	14094
14.68	14150
14.69	14142
14.7	14171
14.71	14212
14.72	14232
14.73	14118
14.74	14116
14.75	14213
14.76	14197
14.77	14199
14.78	14134
14.79	14091
14.8	14113
14.81	14097
14.82	14104
14.83	14150
14.84	14282
14.85	14304
14.86	14210
14.87	14130
14.88	14024
14.89	14030
14.9	13975
14.91	13931
14.92	13927
14.93	13943
14.94	14021
14.95	14003
14.96	13974
14.97	14036
14.98	14152
14.99	14016
15.0	14136
15.01	14189
15.02	14137
15.03	14004
15.04	13872
15.05	13998
15.06	13986
15.07	13781
15.08	13844
15.09	13966
15.1	13872
15.11	13816
15.12	13908
15.13	13823
15.14	13742
15.15	13908
15.16	13949
15.17	13877
15.18	13888
15.19	13916
15.2	13906
15.21	13858
15.22	13803
15.23	13784
15.24	13815
15.25	13839
15.26	13837
15.27	13711
15.28	13721
15.29	13807
15.3	13724
15.31	13619
15.32	13683
15.33	13740
15.34	13668
15.35	13655
15.36	13760
15.37	13627
15.38	13475
15.39	13480
15.4	13434
15.41	13493
15.42	13600
15.43	13723
15.44	13597
15.45	13446
15.46	13430
15.47	13503
15.48	13646
15.49	13560
15.5	13406
15.51	13458
15.52	13518
15.53	13456
15.54	13385
15.55	13334
15.56	13392
15.57	13454
15.58	13501
15.59	13458
15.6	13437
15.61	13327
15.62	13387
15.63	13416
15.64	13386
15.65	13345
15.66	13224
15.67	13196
15.68	13235
15.69	13249
15.7	13285
15.71	13197
15.72	13155
15.73	13266
15.74	13321
15.75	13264
15.76	13138
15.77	13245
15.78	13323
15.79	13225
15.8	13117
15.81	13179
15.82	13140
15.83	13197
15.84	13119
15.85	13083
15.86	13039
15.87	13021
15.88	13108
15.89	13203
15.9	13181
15.91	13155
15.92	13069
15.93	13027
15.94	13075
15.95	13124
15.96	13087
15.97	13008
15.98	13033
15.99	13013
16.0	12979
16.01	13049
16.02	13025
16.03	13009
16.04	12993
16.05	13001
16.06	13009
16.07	12996
16.08	13059
16.09	13022
16.1	12942
16.11	12908
16.12	12952
16.13	12960
16.14	12901
16.15	12985
16.16	13155
16.17	13099
16.18	12960
16.19	12960
16.2	13083
16.21	13055
16.22	12945
16.23	12852
16.24	12860
16.25	12992
16.26	13070
16.27	12953
16.28	12739
16.29	12781
16.3	12865
16.31	12891
16.32	12922
16.33	12937
16.34	12918
16.35	12949
16.36	12941
16.37	12893
16.38	12853
16.39	12841
16.4	12873
16.41	12799
16.42	12790
16.43	12875
16.44	12835
16.45	12844
16.46	12853
16.47	12880
16.48	12908
16.49	12862
16.5	12884
16.51	12978
16.52	12983
16.53	12925
16.54	12877
16.55	12836
16.56	12816
16.57	12912
16.58	13026
16.59	13036
16.6	12920
16.61	12826
16.62	12915
16.63	12949
16.64	12939
16.65	12875
16.66	12863
16.67	13004
16.68	13017
16.69	12958
16.7	12918
16.71	12964
16.72	13021
16.73	12915
16.74	12899
16.75	12972
16.76	12929
16.77	12918
16.78	12959
16.79	12977
16.8	12994
16.81	12953
16.82	12913
16.83	12960
16.84	12920
16.85	12947
16.86	12997
16.87	12968
16.88	12960
16.89	12956
16.9	12980
16.91	12914
16.92	12905
16.93	12921
16.94	12915
16.95	12969
16.96	13054
16.97	13051
16.98	13040
16.99	13028
17.0	12919
17.01	12924
17.02	13004
17.03	12969
17.04	12969
17.05	13098
17.06	13104
17.07	13087
17.08	13090
17.09	13060
17.1	13138
17.11	13124
17.12	12995
17.13	13003
17.14	13018
17.15	12956
17.16	12949
17.17	12987
17.18	13027
17.19	12981
17.2	13024
17.21	13118
17.22	13088
17.23	12976
17.24	12958
17.25	13153
17.26	13195
17.27	13153
17.28	13186
17.29	13174
17.3	13141
17.31	13044
17.32	13045
17.33	13129
17.34	13080
17.35	13029
17.36	13057
17.37	13131
17.38	13132
17.39	13070
17.4	13100
17.41	13127
17.42	13090
17.43	13082
17.44	13107
17.45	13116
17.46	13082
17.47	13059
17.48	13131
17.49	13247
17.5	13223
17.51	13237
17.52	13337
17.53	13358
17.54	13336
17.55	13236
17.56	13180
17.57	13221
17.58	13315
17.59	13323
17.6	13191
17.61	13113
17.62	13198
17.63	13319
17.64	13350
17.65	13341
17.66	13276
17.67	13240
17.68	13227
17.69	13167
17.7	13201
17.71	13237
17.72	13227
17.73	13265
17.74	13296
17.75	13206
17.76	13177
17.77	13228
17.78	13195
17.79	13214
17.8	13190
17.81	13138
17.82	13254
17.83	13417
17.84	13376
17.85	13250
17.86	13223
17.87	13270
17.88	13333
17.89	13333
17.9	13314
17.91	13276
17.92	13222
17.93	13290
17.94	13371
17.95	13334
17.96	13374
17.97	13428
17.98	13336
17.99	13292
18.0	13371
18.01	13385
18.02	13320
18.03	13348
18.04	13349
18.05	13369
18.06	13371
18.07	13261
18.08	13219
18.09	13307
18.1	13410
18.11	13453
18.12	13410
18.13	13322
18.14	13340
18.15	13417
18.16	13357
18.17	13351
18.18	13476
18.19	13489
18.2	13425
18.21	13327
18.22	13329
18.23	13385
18.24	13290
18.25	13301
18.26	13496
18.27	13579
18.28	13531
18.29	13458
18.3	13439
18.31	13495
18.32	13500
18.33	13490
18.34	13460
18.35	13413
18.36	13465
18.37	13461
18.38	13378
18.39	13386
18.4	13424
18.41	13467
18.42	13422
18.43	13436
18.44	13440
18.45	13459
18.46	13479
18.47	13454
18.48	13495
18.49	13565
18.5	13606
18.51	13593
18.52	13456
18.53	13450
18.54	13557
18.55	13512
18.56	13462
18.57	13441
18.58	13440
18.59	13533
18.6	13490
18.61	13428
18.62	13437
18.63	13496
18.64	13525
18.65	13540
18.66	13519
18.67	13492
18.68	13426
18.69	13376
18.7	13392
18.71	13383
18.72	13404
18.73	13495
18.74	13570
18.75	13606
18.76	13482
18.77	13393
18.78	13431
18.79	13461
18.8	13508
18.81	13516
18.82	13577
18.83	13527
18.84	13511
18.85	13506
18.86	13522
18.87	13565
18.88	13505
18.89	13488
18.9	13401
18.91	13406
18.92	13529
18.93	13501
18.94	13537
18.95	13498
18.96	13308
18.97	13323
18.98	13499
18.99	13546
19.0	13502
19.01	13478
19.02	13536
19.03	13608
19.04	13505
19.05	13449
19.06	13491
19.07	13438
19.08	13527
19.09	13581
19.1	13479
19.11	13410
19.12	13496
19.13	13535
19.14	13462
19.15	13447
19.16	13366
19.17	13382
19.18	13498
19.19	13452
19.2	13457
19.21	13492
19.22	13522
19.23	13541
19.24	13553
19.25	13478
19.26	13404
19.27	13364
19.28	13372
19.29	13432
19.3	13378
19.31	13357
19.32	13348
19.33	13368
19.34	13410
19.35	13413
19.36	13392
19.37	13334
19.38	13402
19.39	13476
19.4	13423
19.41	13379
19.42	13446
19.43	13503
19.44	13424
19.45	13353
19.46	13495
19.47	13449
19.48	13321
19.49	13312
19.5	13352
19.51	13278
19.52	13258
19.53	13278
19.54	13274
19.55	13285
19.56	13221
19.57	13292
19.58	13442
19.59	13451
19.6	13405
19.61	13455
19.62	13458
19.63	13350
19.64	13292
19.65	13391
19.66	13429
19.67	13394
19.68	13480
19.69	13519
19.7	13387
19.71	13321
19.72	13282
19.73	13188
19.74	13193
19.75	13334
19.76	13384
19.77	13416
19.78	13338
19.79	13289
19.8	13237
19.81	13184
19.82	13196
19.83	13340
19.84	13399
19.85	13388
19.86	13357
19.87	13282
19.88	13263
19.89	13288
19.9	13278
19.91	13313
19.92	13307
19.93	13290
19.94	13272
19.95	13372
19.96	13349
19.97	13316
19.98	13360
19.99	13396
20.0	13376
20.01	13299
20.02	13292
20.03	13330
20.04	13307
20.05	13288
20.06	13314
20.07	13408
20.08	13341
20.09	13198
20.1	13214
20.11	13251
20.12	13365
20.13	13329
20.14	13341
20.15	13394
20.16	13449
20.17	13423
20.18	13400
20.19	13234
20.2	13126
20.21	13163
20.22	13320
20.23	13401
20.24	13392
20.25	13465
20.26	13513
20.27	13417
20.28	13480
20.29	13505
20.3	13471
20.31	13479
20.32	13493
20.33	13386
20.34	13268
20.35	13276
20.36	13478
20.37	13501
20.38	13410
20.39	13337
20.4	13282
20.41	13346
20.42	13391
20.43	13499
20.44	13553
20.45	13462
20.46	13361
20.47	13373
20.48	13411
20.49	13424
20.5	13457
20.51	13448
20.52	13529
20.53	13502
20.54	13468
20.55	13538
20.56	13546
20.57	13547
20.58	13495
20.59	13488
20.6	13427
20.61	13435
20.62	13515
20.63	13636
20.64	13544
20.65	13581
20.66	13671
20.67	13663
20.68	13639
20.69	13578
20.7	13622
20.71	13613
20.72	13612
20.73	13729
20.74	13685
20.75	13617
20.76	13775
20.77	13765
20.78	13668
20.79	13625
20.8	13750
20.81	13814
20.82	13819
20.83	13750
20.84	13733
20.85	13752
20.86	13983
20.87	13966
20.88	13725
20.89	13684
20.9	13868
20.91	13937
20.92	13900
20.93	13897
20.94	13823
20.95	13810
20.96	13959
20.97	13995
20.98	13837
20.99	13735
21.0	13847
21.01	13907
21.02	13911
21.03	13950
21.04	14024
21.05	14041
21.06	14022
21.07	14093
21.08	14079
21.09	14084
21.1	14052
21.11	14050
21.12	13999
21.13	14143
21.14	14214
21.15	14185
21.16	14174
21.17	14228
21.18	14284
21.19	14292
21.2	14223
21.21	14216
21.22	14377
21.23	14407
21.24	14352
21.25	14381
21.26	14217
21.27	14167
21.28	14238
21.29	14303
21.3	14431
21.31	14325
21.32	14371
21.33	14419
21.34	14397
21.35	14428
21.36	14421
21.37	14336
21.38	14220
21.39	14276
21.4	14480
21.41	14469
21.42	14439
21.43	14456
21.44	14520
21.45	14557
21.46	14603
21.47	14588
21.48	14432
21.49	14518
21.5	14469
21.51	14545
21.52	14558
21.53	14479
21.54	14649
21.55	14634
21.56	14467
21.57	14610
21.58	14619
21.59	14591
21.6	14576
21.61	14539
21.62	14610
21.63	14528
21.64	14499
21.65	14596
21.66	14694
21.67	14639
21.68	14523
21.69	14569
21.7	14585
21.71	14425
21.72	14542
21.73	14592
21.74	14647
21.75	14532
21.76	14460
21.77	14397
21.78	14478
21.79	14375
21.8	14502
21.81	14391
21.82	14410
21.83	14432
21.84	14448
21.85	14509
21.86	14625
21.87	14497
21.88	14488
21.89	14553
21.9	14511
21.91	14463
21.92	14426
21.93	14435
21.94	14399
21.95	14449
21.96	14507
21.97	14383
21.98	14291
21.99	14605
22.0	14496
22.01	14354
22.02	14324
22.03	14297
22.04	14282
22.05	14224
22.06	14202
22.07	14173
22.08	14098
22.09	14127
22.1	14187
22.11	14303
22.12	14236
22.13	14211
22.14	14177
22.15	14283
22.16	14162
22.17	14200
22.18	14137
22.19	14228
22.2	14194
22.21	14033
22.22	14199
22.23	14183
22.24	14089
22.25	14069
22.26	14085
22.27	14030
22.28	14018
22.29	13946
22.3	13929
22.31	13901
22.32	13781
22.33	13751
22.34	13856
22.35	13707
22.36	13635
22.37	13645
22.38	13539
22.39	13661
22.4	13607
22.41	13537
22.42	13480
22.43	13422
22.44	13529
22.45	13507
22.46	13417
22.47	13398
22.48	13549
22.49	13587
22.5	13498
22.51	13421
22.52	13350
22.53	13354
22.54	13298
22.55	13253
22.56	12976
22.57	13068
22.58	13186
22.59	13148
22.6	12942
22.61	13014
22.62	13146
22.63	13058
22.64	12888
22.65	12926
22.66	13061
22.67	12916
22.68	12841
22.69	12847
22.7	12765
22.71	12729
22.72	12790
22.73	12685
22.74	12556
22.75	12623
22.76	12683
22.77	12644
22.78	12668
22.79	12577
22.8	12498
22.81	12500
22.82	12415
22.83	12418
22.84	12417
22.85	12346
22.86	12435
22.87	12361
22.88	12112
22.89	12189
22.9	12263
22.91	12313
22.92	12139
22.93	12255
22.94	12379
22.95	12280
22.96	12224
22.97	12250
22.98	12315
22.99	12245
23.0	12214
23.01	12209
23.02	12195
23.03	12155
23.04	12316
23.05	12286
23.06	12325
23.07	12193
23.08	12312
23.09	12310
23.1	12450
23.11	12398
23.12	12436
23.13	12396
23.14	12272
23.15	12316
23.16	12304
23.17	12191
23.18	12226
23.19	12216
23.2	12072
23.21	11865
23.22	11658
23.23	11677
23.24	11730
23.25	11452
23.26	11372
23.27	11295
23.28	11420
23.29	11197
23.3	11094
23.31	11192
23.32	11125
23.33	11069
23.34	11055
23.35	11059
23.36	11068
23.37	11001
23.38	10951
23.39	10885
23.4	10819
23.41	10773
23.42	10831
23.43	10794
23.44	10805
23.45	10842
23.46	10729
23.47	10716
23.48	10769
23.49	10719
23.5	10637
23.51	10624
23.52	10623
23.53	10614
23.54	10548
23.55	10434
23.56	10373
23.57	10399
23.58	10448
23.59	10457
23.6	10326
23.61	10301
23.62	10288
23.63	10330
23.64	10218
23.65	10173
23.66	10188
23.67	10227
23.68	10049
23.69	10018
23.7	10162
23.71	10141
23.72	10040
23.73	10103
23.74	10123
23.75	10124
23.76	10022
23.77	9973
23.78	10034
23.79	9970
23.8	9968
23.81	10100
23.82	9983
23.83	9948
23.84	9955
23.85	9979
23.86	9877
23.87	9966
23.88	9939
23.89	9856
23.9	9889
23.91	9766
23.92	9870
23.93	9814
23.94	9724
23.95	9767
23.96	9649
23.97	9735
23.98	9804
23.99	9743
24.0	9765
24.01	9749
24.02	9729
24.03	9697
24.04	9675
24.05	9631
24.06	9540
24.07	9621
24.08	9581
24.09	9591
24.1	9517
24.11	9489
24.12	9415
24.13	9528
24.14	9571
24.15	9613
24.16	9620
24.17	9618
24.18	9557
24.19	9463
24.2	9537
24.21	9639
24.22	9506
24.23	9354
24.24	9391
24.25	9419
24.26	9494
24.27	9566
24.28	9550
24.29	9490
24.3	9464
24.31	9419
24.32	9542
24.33	9552
24.34	9310
24.35	9303
24.36	9424
24.37	9379
24.38	9329
24.39	9340
24.4	9456
24.41	9435
24.42	9276
24.43	9268
24.44	9329
24.45	9332
24.46	9279
24.47	9328
24.48	9350
24.49	9333
24.5	9415
24.51	9334
24.52	9250
24.53	9249
24.54	9265
24.55	9199
24.56	9130
24.57	9104
24.58	9215
24.59	9326
24.6	9262
24.61	9209
24.62	9227
24.63	9319
24.64	9361
24.65	9313
24.66	9199
24.67	9159
24.68	9185
24.69	9154
24.7	9176
24.71	9181
24.72	9269
24.73	9266
24.74	9224
24.75	9159
24.76	9233
24.77	9315
24.78	9346
24.79	9286
24.8	9171
24.81	9140
24.82	9206
24.83	9219
24.84	9158
24.85	9124
24.86	9165
24.87	9259
24.88	9256
24.89	9219
24.9	9159
24.91	9222
24.92	9261
24.93	9234
24.94	9129
24.95	9139
24.96	9279
24.97	9306
24.98	9288
24.99	9302
25.0	9357
25.01	9339
25.02	9269
25.03	9197
25.04	9165
25.05	9190
25.06	9229
25.07	9242
25.08	9280
25.09	9307
25.1	9335
25.11	9372
25.12	9342
25.13	9358
25.14	9350
25.15	9286
25.16	9277
25.17	9340
25.18	9300
25.19	9273
25.2	9255
25.21	9201
25.22	9238
25.23	9256
25.24	9246
25.25	9193
25.26	9242
25.27	9328
25.28	9345
25.29	9353
25.3	9394
25.31	9409
25.32	9309
25.33	9300
25.34	9345
25.35	9347
25.36	9363
25.37	9452
25.38	9370
25.39	9395
25.4	9453
25.41	9505
25.42	9578
25.43	9552
25.44	9413
25.45	9318
25.46	9399
25.47	9454
25.48	9434
25.49	9417
25.5	9409
25.51	9419
25.52	9425
25.53	9413
25.54	9433
25.55	9432
25.56	9467
25.57	9434
25.58	9528
25.59	9568
25.6	9485
25.61	9403
25.62	9421
25.63	9470
25.64	9457
25.65	9486
25.66	9521
25.67	9569
25.68	9498
25.69	9434
25.7	9510
25.71	9563
25.72	9551
25.73	9596
25.74	9597
25.75	9529
25.76	9521
25.77	9496
25.78	9506
25.79	9466
25.8	9455
25.81	9510
25.82	9484
25.83	9406
25.84	9409
25.85	9423
25.86	9462
25.87	9531
25.88	9510
25.89	9501
25.9	9559
25.91	9466
25.92	9437
25.93	9464
25.94	9465
25.95	9422
25.96	9394
25.97	9433
25.98	9420
25.99	9373
26.0	9369
26.01	9309
26.02	9418
26.03	9441
26.04	9447
26.05	9423
26.06	9433
26.07	9483
26.08	9483
26.09	9424
26.1	9413
26.11	9443
26.12	9435
26.13	9431
26.14	9427
26.15	9414
26.16	9359
26.17	9338
26.18	9327
26.19	9345
26.2	9345
26.21	9349
26.22	9409
26.23	9489
26.24	9362
26.25	9276
26.26	9244
26.27	9240
26.28	9266
26.29	9277
26.3	9292
26.31	9255
26.32	9233
26.33	9193
26.34	9148
26.35	9160
26.36	9183
26.37	9186
26.38	9226
26.39	9313
26.4	9220
26.41	9222
26.42	9229
26.43	9167
26.44	9119
26.45	9098
26.46	9060
26.47	8986
26.48	8940
26.49	8999
26.5	8998
26.51	8968
26.52	8931
26.53	8921
26.54	8941
26.55	8939
26.56	8885
26.57	8838
26.58	8882
26.59	8886
26.6	8869
26.61	8849
26.62	8819
26.63	8735
26.64	8751
26.65	8790
26.66	8721
26.67	8675
26.68	8656
26.69	8661
26.7	8721
26.71	8791
26.72	8728
26.73	8674
26.74	8734
26.75	8705
26.76	8634
26.77	8586
26.78	8564
26.79	8519
26.8	8487
26.81	8526
26.82	8560
26.83	8476
26.84	8360
26.85	8321
26.86	8361
26.87	8373
26.88	8396
26.89	8444
26.9	8371
26.91	8282
26.92	8271
26.93	8295
26.94	8275
26.95	8255
26.96	8269
26.97	8197
26.98	8131
26.99	8091
27.0	8041
27.01	8012
27.02	8022
27.03	8001
27.04	8008
27.05	8009
27.06	7959
27.07	7908
27.08	7863
27.09	7883
27.1	7914
27.11	7889
27.12	7836
27.13	7836
27.14	7806
27.15	7799
27.16	7843
27.17	7808
27.18	7783
27.19	7806
27.2	7811
27.21	7759
27.22	7712
27.23	7700
27.24	7657
27.25	7603
27.26	7566
27.27	7543
27.28	7517
27.29	7485
27.3	7452
27.31	7427
27.32	7483
27.33	7539
27.34	7524
27.35	7529
27.36	7548
27.37	7467
27.38	7388
27.39	7450
27.4	7434
27.41	7246
27.42	7125
27.43	7196
27.44	7302
27.45	7251
27.46	7186
27.47	7213
27.48	7167
27.49	7146
27.5	7176
27.51	7158
27.52	7077
27.53	7091
27.54	7160
27.55	7144
27.56	7066
27.57	7006
27.58	7081
27.59	7095
27.6	6979
27.61	6918
27.62	6912
27.63	6909
27.64	6877
27.65	6832
27.66	6843
27.67	6897
27.68	6905
27.69	6857
27.7	6844
27.71	6849
27.72	6867
27.73	6851
27.74	6786
27.75	6798
27.76	6771
27.77	6705
27.78	6786
27.79	6762
27.8	6677
27.81	6633
27.82	6611
27.83	6671
27.84	6664
27.85	6612
27.86	6622
27.87	6592
27.88	6499
27.89	6512
27.9	6589
27.91	6601
27.92	6577
27.93	6557
27.94	6528
27.95	6555
27.96	6497
27.97	6468
27.98	6447
27.99	6386
28.0	6397
28.01	6376
28.02	6367
28.03	6402
28.04	6369
28.05	6304
28.06	6218
28.07	6207
28.08	6299
28.09	6325
28.1	6281
28.11	6288
28.12	6356
28.13	6420
28.14	6344
28.15	6186
28.16	6236
28.17	6303
28.18	6304
28.19	6239
28.2	6138
28.21	6142
28.22	6154
28.23	6139
28.24	6081
28.25	6113
28.26	6229
28.27	6179
28.28	6138
28.29	6129
28.3	6030
28.31	6005
28.32	6025
28.33	6013
28.34	6065
28.35	6045
28.36	5954
28.37	5960
28.38	6035
28.39	6053
28.4	5943
28.41	5869
28.42	5880
28.43	5921
28.44	5969
28.45	5940
28.46	5868
28.47	5936
28.48	5983
28.49	5890
28.5	5821
28.51	5787
28.52	5748
28.53	5818
28.54	5892
28.55	5906
28.56	5900
28.57	5896
28.58	5961
28.59	5978
28.6	5996
28.61	5971
28.62	5963
28.63	6036
28.64	6030
28.65	6031
28.66	6106
28.67	6135
28.68	6154
28.69	6198
28.7	6196
28.71	6180
28.72	6169
28.73	6069
28.74	6042
28.75	6034
28.76	5969
28.77	5947
28.78	5925
28.79	5963
28.8	5790
28.81	5631
28.82	5575
28.83	5588
28.84	5591
28.85	5501
28.86	5542
28.87	5565
28.88	5469
28.89	5441
28.9	5471
28.91	5415
28.92	5376
28.93	5478
28.94	5499
28.95	5484
28.96	5471
28.97	5418
28.98	5453
28.99	5396
29.0	5362
29.01	5311
29.02	5286
29.03	5299
29.04	5343
29.05	5450
29.06	5389
29.07	5280
29.08	5235
29.09	5238
29.1	5252
29.11	5250
29.12	5283
29.13	5261
29.14	5298
29.15	5309
29.16	5259
29.17	5229
29.18	5222
29.19	5177
29.2	5171
29.21	5244
29.22	5215
29.23	5243
29.24	5208
29.25	5145
29.26	5143
29.27	5154
29.28	5124
29.29	5131
29.3	5203
29.31	5159
29.32	5090
29.33	5036
29.34	5034
29.35	5093
29.36	5123
29.37	5149
29.38	5082
29.39	5033
29.4	5087
29.41	5074
29.42	5002
29.43	4956
29.44	4994
29.45	5009
29.46	4958
29.47	4909
29.48	4894
29.49	4917
29.5	4874
29.51	4926
29.52	4964
29.53	4945
29.54	4952
29.55	4839
29.56	4852
29.57	4872
29.58	4859
29.59	4888
29.6	4909
29.61	4799
29.62	4771
29.63	4854
29.64	4812
29.65	4769
29.66	4758
29.67	4783
29.68	4716
29.69	4733
29.7	4774
29.71	4748
29.72	4761
29.73	4853
29.74	4833
29.75	4772
29.76	4775
29.77	4779
29.78	4789
29.79	4747
29.8	4684
29.81	4639
29.82	4685
29.83	4688
29.84	4655
29.85	4623
29.86	4614
29.87	4595
29.88	4620
29.89	4630
29.9	4671
29.91	4655
29.92	4602
29.93	4581
29.94	4547
29.95	4580
29.96	4560
29.97	4635
29.98	4618
29.99	4580
30.0	4651
30.01	4564
30.02	4558
30.03	4478
30.04	4511
30.05	4552
30.06	4563
30.07	4584
30.08	4529
30.09	4509
30.1	4513
30.11	4533
30.12	4510
30.13	4526
30.14	4537
30.15	4504
30.16	4450
30.17	4410
30.18	4388
30.19	4358
30.2	4389
30.21	4387
30.22	4383
30.23	4406
30.24	4436
30.25	4478
30.26	4456
30.27	4416
30.28	4426
30.29	4331
30.3	4327
30.31	4328
30.32	4368
30.33	4437
30.34	4431
30.35	4391
30.36	4352
30.37	4369
30.38	4327
30.39	4283
30.4	4357
30.41	4337
30.42	4350
30.43	4290
30.44	4374
30.45	4331
30.46	4313
30.47	4312
30.48	4281
30.49	4296
30.5	4252
30.51	4231
30.52	4212
30.53	4310
30.54	4288
30.55	4287
30.56	4285
30.57	4230
30.58	4211
30.59	4177
30.6	4170
30.61	4217
30.62	4196
30.63	4199
30.64	4262
30.65	4224
30.66	4302
30.67	4329
30.68	4223
30.69	4250
30.7	4202
30.71	4250
30.72	4159
30.73	4107
30.74	4170
30.75	4165
30.76	4157
30.77	4186
30.78	4240
30.79	4204
30.8	4126
30.81	4162
30.82	4152
30.83	4102
30.84	4107
30.85	4044
30.86	4057
30.87	4158
30.88	4110
30.89	4112
30.9	4049
30.91	4111
30.92	4096
30.93	3997
30.94	4015
30.95	4035
30.96	4069
30.97	4073
30.98	4091
30.99	4057
31.0	4051
31.01	4043
31.02	3998
31.03	3982
31.04	4023
31.05	4007
31.06	4042
31.07	3994
31.08	4003
31.09	3991
31.1	3908
31.11	3918
31.12	3932
31.13	3890
31.14	3901
31.15	3983
31.16	3944
31.17	3866
31.18	4003
31.19	4076
31.2	3963
31.21	3973
31.22	3968
31.23	3983
31.24	3930
31.25	3862
31.26	3865
31.27	3880
31.28	3943
31.29	3913
31.3	3857
31.31	3829
31.32	3895
31.33	3871
31.34	3880
31.35	3880
31.36	3931
31.37	3898
31.38	3837
31.39	3894
31.4	3943
31.41	3888
31.42	3890
31.43	3885
31.44	3813
31.45	3773
31.46	3807
31.47	3865
31.48	3801
31.49	3769
31.5	3755
31.51	3816
31.52	3779
31.53	3733
31.54	3722
31.55	3703
31.56	3870
31.57	3924
31.58	3825
31.59	3824
31.6	3862
31.61	3840
31.62	3746
31.63	3708
31.64	3761
31.65	3688
31.66	3784
31.67	3855
31.68	3875
31.69	3821
31.7	3691
31.71	3744
31.72	3819
31.73	3776
31.74	3812
31.75	3846
31.76	3706
31.77	3715
31.78	3760
31.79	3789
31.8	3808
31.81	3785
31.82	3754
31.83	3810
31.84	3715
31.85	3688
31.86	3741
31.87	3789
31.88	3764
31.89	3864
31.9	3802
31.91	3685
31.92	3707
31.93	3733
31.94	3750
31.95	3769
31.96	3767
31.97	3694
31.98	3723
31.99	3726
32.0	3729
32.01	3654
32.02	3794
32.03	3814
32.04	3756
32.05	3746
32.06	3787
32.07	3797
32.08	3784
32.09	3750
32.1	3770
32.11	3697
32.12	3702
32.13	3706
32.14	3723
32.15	3746
32.16	3746
32.17	3749
32.18	3783
32.19	3796
32.2	3765
32.21	3790
32.22	3757
32.23	3675
32.24	3731
32.25	3751
32.26	3770
32.27	3779
32.28	3722
32.29	3789
32.3	3779
32.31	3750
32.32	3783
32.33	3740
32.34	3818
32.35	3789
32.36	3772
32.37	3805
32.38	3842
32.39	3791
32.4	3784
32.41	3804
32.42	3822
32.43	3808
32.44	3777
32.45	3803
32.46	3823
32.47	3787
32.48	3831
32.49	3847
32.5	3880
32.51	3924
32.52	3994
32.53	4090
32.54	4044
32.55	4011
32.56	4048
32.57	4087
32.58	4155
32.59	4087
32.6	4219
32.61	4210
32.62	4288
32.63	4364
32.64	4351
32.65	4431
32.66	4579
32.67	4669
32.68	4724
32.69	4753
32.7	4839
32.71	5032
32.72	5213
32.73	5309
32.74	5485
32.75	5591
32.76	5815
32.77	5938
32.78	6335
32.79	6617
32.8	6909
32.81	7156
32.82	7504
32.83	8024
32.84	8529
32.85	8937
32.86	9341
32.87	9770
32.88	10227
32.89	10818
32.9	11350
32.91	11853
32.92	12283
32.93	12637
32.94	13066
32.95	13231
32.96	13103
32.97	13039
32.98	12986
32.99	12599
33.0	12280
33.01	12011
33.02	11465
33.03	10863
33.04	10393
33.05	9872
33.06	9451
33.07	8922
33.08	8322
33.09	7838
33.1	7354
33.11	7003
33.12	6612
33.13	6263
33.14	5957
33.15	5671
33.16	5499
33.17	5363
33.18	5124
33.19	4954
33.2	4806
33.21	4691
33.22	4556
33.23	4460
33.24	4383
33.25	4354
33.26	4269
33.27	4272
33.28	4171
33.29	4113
33.3	3988
33.31	3936
33.32	3922
33.33	3870
33.34	3893
33.35	3925
33.36	3805
33.37	3764
33.38	3838
33.39	3761
33.4	3757
33.41	3707
33.42	3616
33.43	3621
33.44	3593
33.45	3599
33.46	3580
33.47	3577
33.48	3556
33.49	3536
33.5	3496
33.51	3494
33.52	3540
33.53	3488
33.54	3435
33.55	3425
33.56	3423
33.57	3413
33.58	3388
33.59	3393
33.6	3425
33.61	3461
33.62	3356
33.63	3382
33.64	3367
33.65	3401
33.66	3382
33.67	3330
33.68	3296
33.69	3358
33.7	3341
33.71	3398
33.72	3422
33.73	3366
33.74	3338
33.75	3283
33.76	3303
33.77	3322
33.78	3306
33.79	3296
33.8	3304
33.81	3312
33.82	3289
33.83	3274
33.84	3321
33.85	3272
33.86	3246
33.87	3280
33.88	3283
33.89	3238
33.9	3267
33.91	3265
33.92	3291
33.93	3299
33.94	3341
33.95	3316
33.96	3274
33.97	3220
33.98	3264
33.99	3291
34.0	3258
34.01	3256
34.02	3281
34.03	3260
34.04	3222
34.05	3199
34.06	3230
34.07	3270
34.08	3231
34.09	3118
34.1	3202
34.11	3294
34.12	3283
34.13	3257
34.14	3199
34.15	3161
34.16	3181
34.17	3257
34.18	3222
34.19	3172
34.2	3163
34.21	3186
34.22	3207
34.23	3175
34.24	3138
34.25	3133
34.26	3169
34.27	3187
34.28	3148
34.29	3125
34.3	3143
34.31	3149
34.32	3136
34.33	3117
34.34	3141
34.35	3131
34.36	3110
34.37	3150
34.38	3142
34.39	3145
34.4	3137
34.41	3132
34.42	3151
34.43	3128
34.44	3139
34.45	3180
34.46	3159
34.47	3134
34.48	3206
34.49	3183
34.5	3087
34.51	3057
34.52	3060
34.53	3152
34.54	3140
34.55	3152
34.56	3225
34.57	3144
34.58	3081
34.59	3124
34.6	3131
34.61	3149
34.62	3156
34.63	3124
34.64	3143
34.65	3146
34.66	3174
34.67	3185
34.68	3138
34.69	3141
34.7	3189
34.71	3148
34.72	3126
34.73	3107
34.74	3102
34.75	3156
34.76	3217
34.77	3170
34.78	3132
34.79	3138
34.8	3160
34.81	3202
34.82	3214
34.83	3177
34.84	3140
34.85	3124
34.86	3136
34.87	3114
34.88	3089
34.89	3123
34.9	3169
34.91	3119
34.92	3125
34.93	3128
34.94	3036
34.95	3079
34.96	3125
34.97	3159
34.98	3199
34.99	3223
35.0	3160
35.01	3132
35.02	3141
35.03	3170
35.04	3156
35.05	3144
35.06	3159
35.07	3136
35.08	3141
35.09	3112
35.1	3057
35.11	3095
35.12	3150
35.13	3162
35.14	3135
35.15	3115
35.16	3104
35.17	3151
35.18	3143
35.19	3096
35.2	3061
35.21	3091
35.22	3158
35.23	3191
35.24	3138
35.25	3059
35.26	3070
35.27	3124
35.28	3144
35.29	3134
35.3	3146
35.31	3088
35.32	3078
35.33	3112
35.34	3115
35.35	3073
35.36	3088
35.37	3154
35.38	3148
35.39	3114
35.4	3140
35.41	3157
35.42	3168
35.43	3177
35.44	3193
35.45	3198
35.46	3196
35.47	3162
35.48	3168
35.49	3206
35.5	3188
35.51	3141
35.52	3145
35.53	3102
35.54	3098
35.55	3182
35.56	3209
35.57	3202
35.58	3214
35.59	3211
35.6	3205
35.61	3219
35.62	3243
35.63	3219
35.64	3231
35.65	3317
35.66	3330
35.67	3297
35.68	3309
35.69	3309
35.7	3317
35.71	3297
35.72	3254
35.73	3263
35.74	3298
35.75	3318
35.76	3291
35.77	3245
35.78	3216
35.79	3207
35.8	3210
35.81	3188
35.82	3186
35.83	3170
35.84	3129
35.85	3120
35.86	3129
35.87	3166
35.88	3171
35.89	3138
35.9	3190
35.91	3203
35.92	3159
35.93	3135
35.94	3135
35.95	3103
35.96	3086
35.97	3123
35.98	3172
35.99	3187
36.0	3114
36.01	3106
36.02	3160
36.03	3135
36.04	3113
36.05	3105
36.06	3070
36.07	3070
36.08	3097
36.09	3126
36.1	3152
36.11	3164
36.12	3154
36.13	3119
36.14	3083
36.15	3074
36.16	3096
36.17	3092
36.18	3087
36.19	3058
36.2	3037
36.21	3078
36.22	3107
36.23	3116
36.24	3088
36.25	3068
36.26	3071
36.27	3058
36.28	3038
36.29	3017
36.3	3026
36.31	3040
36.32	3027
36.33	3022
36.34	3054
36.35	3064
36.36	3083
36.37	3109
36.38	3060
36.39	3000
36.4	2978
36.41	3002
36.42	3000
36.43	2986
36.44	3002
36.45	3048
36.46	3076
36.47	3037
36.48	3019
36.49	3009
36.5	2984
36.51	2997
36.52	3014
36.53	2993
36.54	2969
36.55	2945
36.56	2945
36.57	2967
36.58	2974
36.59	3000
36.6	3012
36.61	3007
36.62	3033
36.63	3027
36.64	3028
36.65	3058
36.66	3037
36.67	2974
36.68	2987
36.69	3007
36.7	2922
36.71	2884
36.72	2942
36.73	2970
36.74	2940
36.75	2927
36.76	2943
36.77	2955
36.78	2959
36.79	2942
36.8	2963
36.81	2979
36.82	2979
36.83	2988
36.84	2966
36.85	2922
36.86	2923
36.87	2947
36.88	2927
36.89	2898
36.9	2866
36.91	2882
36.92	2919
36.93	2956
36.94	2926
36.95	2871
36.96	2901
36.97	2958
36.98	2965
36.99	2940
37.0	2907
37.01	2921
37.02	2978
37.03	2953
37.04	2924
37.05	2926
37.06	2909
37.07	2885
37.08	2881
37.09	2897
37.1	2901
37.11	2884
37.12	2910
37.13	2936
37.14	2892
37.15	2876
37.16	2907
37.17	2915
37.18	2882
37.19	2852
37.2	2866
37.21	2878
37.22	2853
37.23	2827
37.24	2836
37.25	2854
37.26	2892
37.27	2915
37.28	2905
37.29	2940
37.3	2949
37.31	2889
37.32	2858
37.33	2919
37.34	2976
37.35	3000
37.36	3002
37.37	2954
37.38	2879
37.39	2883
37.4	2926
37.41	2943
37.42	2924
37.43	2917
37.44	2890
37.45	2848
37.46	2879
37.47	2900
37.48	2886
37.49	2856
37.5	2834
37.51	2861
37.52	2869
37.53	2860
37.54	2834
37.55	2811
37.56	2764
37.57	2756
37.58	2809
37.59	2814
37.6	2756
37.61	2786
37.62	2827
37.63	2808
37.64	2849
37.65	2878
37.66	2811
37.67	2757
37.68	2786
37.69	2842
37.7	2850
37.71	2871
37.72	2869
37.73	2815
37.74	2739
37.75	2755
37.76	2805
37.77	2823
37.78	2834
37.79	2859
37.8	2818
37.81	2801
37.82	2832
37.83	2838
37.84	2823
37.85	2769
37.86	2766
37.87	2805
37.88	2827
37.89	2856
37.9	2859
37.91	2867
37.92	2898
37.93	2934
37.94	2954
37.95	2945
37.96	2991
37.97	2991
37.98	2948
37.99	2932
38.0	3001
38.01	3035
38.02	2993
38.03	2989
38.04	3070
38.05	3182
38.06	3189
38.07	3188
38.08	3269
38.09	3323
38.1	3373
38.11	3504
38.12	3637
38.13	3768
38.14	3905
38.15	4003
38.16	4089
38.17	4198
38.18	4318
38.19	4421
38.2	4539
38.21	4683
38.22	4788
38.23	4825
38.24	4801
38.25	4731
38.26	4712
38.27	4721
38.28	4636
38.29	4473
38.3	4375
38.31	4241
38.32	4180
38.33	4166
38.34	4017
38.35	3877
38.36	3811
38.37	3722
38.38	3590
38.39	3488
38.4	3380
38.41	3234
38.42	3154
38.43	3162
38.44	3128
38.45	3047
38.46	2964
38.47	2955
38.48	2941
38.49	2897
38.5	2846
38.51	2815
38.52	2840
38.53	2859
38.54	2845
38.55	2866
38.56	2853
38.57	2768
38.58	2742
38.59	2769
38.6	2778
38.61	2747
38.62	2743
38.63	2761
38.64	2741
38.65	2691
38.66	2657
38.67	2663
38.68	2693
38.69	2752
38.7	2778
38.71	2805
38.72	2815
38.73	2727
38.74	2675
38.75	2645
38.76	2683
38.77	2687
38.78	2699
38.79	2733
38.8	2705
38.81	2684
38.82	2683
38.83	2727
38.84	2686
38.85	2663
38.86	2673
38.87	2670
38.88	2699
38.89	2640
38.9	2632
38.91	2638
38.92	2597
38.93	2591
38.94	2622
38.95	2633
38.96	2659
38.97	2687
38.98	2659
38.99	2588
39.0	2615
39.01	2635
39.02	2625
39.03	2625
39.04	2620
39.05	2620
39.06	2605
39.07	2620
39.08	2649
39.09	2714
39.1	2714
39.11	2678
39.12	2601
39.13	2532
39.14	2555
39.15	2588
39.16	2588
39.17	2593
39.18	2615
39.19	2629
39.2	2658
39.21	2567
39.22	2520
39.23	2556
39.24	2589
39.25	2591
39.26	2584
39.27	2586
39.28	2577
39.29	2602
39.3	2600
39.31	2560
39.32	2590
39.33	2578
39.34	2607
39.35	2637
39.36	2672
39.37	2674
39.38	2610
39.39	2632
39.4	2630
39.41	2600
39.42	2624
39.43	2625
39.44	2614
39.45	2595
39.46	2554
39.47	2576
39.48	2579
39.49	2603
39.5	2614
39.51	2594
39.52	2601
39.53	2644
39.54	2655
39.55	2626
39.56	2588
39.57	2559
39.58	2535
39.59	2545
39.6	2615
39.61	2618
39.62	2538
39.63	2516
39.64	2525
39.65	2559
39.66	2550
39.67	2591
39.68	2579
39.69	2520
39.7	2541
39.71	2564
39.72	2539
39.73	2567
39.74	2585
39.75	2586
39.76	2582
39.77	2586
39.78	2552
39.79	2579
39.8	2604
39.81	2499
39.82	2519
39.83	2550
39.84	2550
39.85	2501
39.86	2484
39.87	2532
39.88	2542
39.89	2572
39.9	2570
39.91	2575
39.92	2591
39.93	2570
39.94	2541
39.95	2536
39.96	2490
39.97	2549
39.98	2502
39.99	2510
40.0	2584
40.01	2598
40.02	2580
40.03	2553
40.04	2544
40.05	2541
40.06	2506
40.07	2583
40.08	2592
40.09	2567
40.1	2528
40.11	2565
40.12	2563
40.13	2543
40.14	2591
40.15	2611
40.16	2539
40.17	2567
40.18	2565
40.19	2627
40.2	2643
40.21	2548
40.22	2537
40.23	2512
40.24	2549
40.25	2579
40.26	2579
40.27	2533
40.28	2518
40.29	2634
40.3	2649
40.31	2642
40.32	2612
40.33	2584
40.34	2581
40.35	2572
40.36	2536
40.37	2537
40.38	2558
40.39	2607
40.4	2612
40.41	2567
40.42	2634
40.43	2597
40.44	2567
40.45	2589
40.46	2534
40.47	2584
40.48	2600
40.49	2569
40.5	2576
40.51	2556
40.52	2548
40.53	2617
40.54	2626
40.55	2573
40.56	2624
40.57	2700
40.58	2709
40.59	2715
40.6	2681
40.61	2675
40.62	2650
40.63	2628
40.64	2652
40.65	2668
40.66	2697
40.67	2720
40.68	2688
40.69	2640
40.7	2615
40.71	2607
40.72	2661
40.73	2651
40.74	2633
40.75	2645
40.76	2599
40.77	2571
40.78	2599
40.79	2592
40.8	2621
40.81	2630
40.82	2659
40.83	2605
40.84	2639
40.85	2644
40.86	2563
40.87	2548
40.88	2544
40.89	2556
40.9	2546
40.91	2602
40.92	2615
40.93	2597
40.94	2602
40.95	2619
40.96	2565
40.97	2554
40.98	2565
40.99	2607
41.0	2630
41.01	2627
41.02	2634
41.03	2609
41.04	2616
41.05	2567
41.06	2580
41.07	2567
41.08	2526
41.09	2419
41.1	2566
41.11	2571
41.12	2579
41.13	2605
41.14	2536
41.15	2501
41.16	2515
41.17	2539
41.18	2559
41.19	2566
41.2	2567
41.21	2608
41.22	2601
41.23	2561
41.24	2507
41.25	2513
41.26	2498
41.27	2486
41.28	2556
41.29	2540
41.3	2544
41.31	2627
41.32	2570
41.33	2532
41.34	2538
41.35	2581
41.36	2532
41.37	2493
41.38	2517
41.39	2570
41.4	2606
41.41	2551
41.42	2571
41.43	2608
41.44	2557
41.45	2523
41.46	2529
41.47	2556
41.48	2542
41.49	2470
41.5	2493
41.51	2564
41.52	2564
41.53	2580
41.54	2570
41.55	2596
41.56	2496
41.57	2547
41.58	2589
41.59	2546
41.6	2584
41.61	2587
41.62	2542
41.63	2561
41.64	2500
41.65	2491
41.66	2557
41.67	2630
41.68	2584
41.69	2604
41.7	2516
41.71	2539
41.72	2575
41.73	2566
41.74	2533
41.75	2520
41.76	2523
41.77	2606
41.78	2553
41.79	2538
41.8	2571
41.81	2542
41.82	2530
41.83	2575
41.84	2533
41.85	2538
41.86	2508
41.87	2548
41.88	2534
41.89	2512
41.9	2573
41.91	2472
41.92	2530
41.93	2579
41.94	2620
41.95	2564
41.96	2569
41.97	2550
41.98	2479
41.99	2532
42.0	2558
42.01	2527
42.02	2549
42.03	2575
42.04	2575
42.05	2527
42.06	2522
42.07	2528
42.08	2495
42.09	2491
42.1	2524
42.11	2563
42.12	2481
42.13	2575
42.14	2576
42.15	2534
42.16	2508
42.17	2517
42.18	2471
42.19	2493
42.2	2542
42.21	2519
42.22	2546
42.23	2553
42.24	2543
42.25	2546
42.26	2531
42.27	2567
42.28	2564
42.29	2547
42.3	2507
42.31	2532
42.32	2432
42.33	2528
42.34	2544
42.35	2571
42.36	2553
42.37	2439
42.38	2521
42.39	2521
42.4	2539
42.41	2555
42.42	2547
42.43	2509
42.44	2550
42.45	2531
42.46	2517
42.47	2475
42.48	2476
42.49	2501
42.5	2457
42.51	2474
42.52	2534
42.53	2541
42.54	2564
42.55	2580
42.56	2530
42.57	2508
42.58	2508
42.59	2542
42.6	2482
42.61	2553
42.62	2454
42.63	2480
42.64	2562
42.65	2523
42.66	2477
42.67	2472
42.68	2474
42.69	2512
42.7	2492
42.71	2489
42.72	2516
42.73	2474
42.74	2445
42.75	2467
42.76	2491
42.77	2505
42.78	2508
42.79	2566
42.8	2554
42.81	2517
42.82	2484
42.83	2522
42.84	2586
42.85	2607
42.86	2629
42.87	2583
42.88	2573
42.89	2553
42.9	2569
42.91	2582
42.92	2524
42.93	2565
42.94	2603
42.95	2579
42.96	2513
42.97	2522
42.98	2531
42.99	2540
43.0	2521
43.01	2551
43.02	2586
43.03	2564
43.04	2579
43.05	2547
43.06	2527
43.07	2519
43.08	2547
43.09	2545
43.1	2500
43.11	2487
43.12	2528
43.13	2521
43.14	2468
43.15	2483
43.16	2577
43.17	2460
43.18	2402
43.19	2491
43.2	2498
43.21	2422
43.22	2398
43.23	2464
43.24	2493
43.25	2527
43.26	2462
43.27	2471
43.28	2496
43.29	2507
43.3	2476
43.31	2464
43.32	2483
43.33	2472
43.34	2422
43.35	2438
43.36	2431
43.37	2442
43.38	2441
43.39	2462
43.4	2433
43.41	2415
43.42	2476
43.43	2463
43.44	2506
43.45	2488
43.46	2401
43.47	2400
43.48	2432
43.49	2440
43.5	2424
43.51	2480
43.52	2507
43.53	2449
43.54	2387
43.55	2442
43.56	2439
43.57	2464
43.58	2455
43.59	2495
43.6	2442
43.61	2457
43.62	2425
43.63	2421
43.64	2393
43.65	2391
43.66	2376
43.67	2398
43.68	2438
43.69	2418
43.7	2416
43.71	2417
43.72	2387
43.73	2401
43.74	2386
43.75	2386
43.76	2390
43.77	2414
43.78	2385
43.79	2416
43.8	2442
43.81	2421
43.82	2412
43.83	2408
43.84	2401
43.85	2453
43.86	2373
43.87	2379
43.88	2424
43.89	2452
43.9	2460
43.91	2435
43.92	2418
43.93	2423
43.94	2421
43.95	2381
43.96	2387
43.97	2435
43.98	2470
43.99	2421
44.0	2423
44.01	2456
44.02	2394
44.03	2370
44.04	2421
44.05	2460
44.06	2451
44.07	2438
44.08	2460
44.09	2393
44.1	2404
44.11	2403
44.12	2407
44.13	2389
44.14	2384
44.15	2384
44.16	2359
44.17	2388
44.18	2437
44.19	2429
44.2	2423
44.21	2381
44.22	2413
44.23	2399
44.24	2398
44.25	2386
44.26	2351
44.27	2383
44.28	2345
44.29	2368
44.3	2446
44.31	2430
44.32	2447
44.33	2473
44.34	2429
44.35	2380
44.36	2422
44.37	2433
44.38	2428
44.39	2445
44.4	2411
44.41	2428
44.42	2388
44.43	2398
44.44	2440
44.45	2446
44.46	2444
44.47	2384
44.48	2411
44.49	2434
44.5	2428
44.51	2482
44.52	2433
44.53	2382
44.54	2394
44.55	2402
44.56	2352
44.57	2386
44.58	2398
44.59	2430
44.6	2439
44.61	2422
44.62	2474
44.63	2465
44.64	2433
44.65	2508
44.66	2505
44.67	2442
44.68	2475
44.69	2493
44.7	2444
44.71	2455
44.72	2475
44.73	2407
44.74	2435
44.75	2477
44.76	2455
44.77	2460
44.78	2463
44.79	2497
44.8	2522
44.81	2479
44.82	2493
44.83	2556
44.84	2566
44.85	2500
44.86	2555
44.87	2587
44.88	2603
44.89	2598
44.9	2599
44.91	2550
44.92	2596
44.93	2647
44.94	2648
44.95	2692
44.96	2726
44.97	2738
44.98	2809
44.99	2860
45.0	2864
45.01	2817
45.02	2873
45.03	2973
45.04	3001
45.05	3019
45.06	3149
45.07	3211
45.08	3256
45.09	3318
45.1	3375
45.11	3410
45.12	3476
45.13	3546
45.14	3575
45.15	3594
45.16	3634
45.17	3675
45.18	3666
45.19	3600
45.2	3568
45.21	3503
45.22	3431
45.23	3360
45.24	3325
45.25	3318
45.26	3307
45.27	3285
45.28	3227
45.29	3183
45.3	3164
45.31	3149
45.32	3130
45.33	3066
45.34	2999
45.35	2912
45.36	2851
45.37	2813
45.38	2745
45.39	2756
45.4	2790
45.41	2722
45.42	2653
45.43	2684
45.44	2657
45.45	2603
45.46	2606
45.47	2597
45.48	2504
45.49	2503
45.5	2517
45.51	2475
45.52	2501
45.53	2563
45.54	2509
45.55	2439
45.56	2483
45.57	2517
45.58	2519
45.59	2489
45.6	2460
45.61	2457
45.62	2423
45.63	2402
45.64	2420
45.65	2433
45.66	2439
45.67	2477
45.68	2464
45.69	2451
45.7	2411
45.71	2360
45.72	2361
45.73	2373
45.74	2376
45.75	2412
45.76	2407
45.77	2482
45.78	2500
45.79	2395
45.8	2352
45.81	2362
45.82	2362
45.83	2365
45.84	2340
45.85	2355
45.86	2368
45.87	2361
45.88	2407
45.89	2408
45.9	2371
45.91	2392
45.92	2382
45.93	2395
45.94	2396
45.95	2339
45.96	2379
45.97	2383
45.98	2379
45.99	2418
46.0	2406
46.01	2372
46.02	2396
46.03	2371
46.04	2320
46.05	2328
46.06	2363
46.07	2413
46.08	2397
46.09	2398
46.1	2357
46.11	2395
46.12	2377
46.13	2368
46.14	2362
46.15	2348
46.16	2366
46.17	2376
46.18	2357
46.19	2370
46.2	2361
46.21	2349
46.22	2331
46.23	2327
46.24	2313
46.25	2325
46.26	2344
46.27	2368
46.28	2418
46.29	2439
46.3	2408
46.31	2426
46.32	2391
46.33	2378
46.34	2368
46.35	2330
46.36	2330
46.37	2387
46.38	2384
46.39	2311
46.4	2307
46.41	2346
46.42	2369
46.43	2382
46.44	2378
46.45	2364
46.46	2361
46.47	2364
46.48	2389
46.49	2372
46.5	2363
46.51	2299
46.52	2295
46.53	2337
46.54	2351
46.55	2362
46.56	2339
46.57	2331
46.58	2349
46.59	2370
46.6	2307
46.61	2296
46.62	2302
46.63	2334
46.64	2339
46.65	2340
46.66	2342
46.67	2341
46.68	2358
46.69	2350
46.7	2327
46.71	2336
46.72	2377
46.73	2344
46.74	2299
46.75	2325
46.76	2367
46.77	2398
46.78	2376
46.79	2401
46.8	2362
46.81	2346
46.82	2343
46.83	2337
46.84	2314
46.85	2317
46.86	2317
46.87	2322
46.88	2336
46.89	2332
46.9	2321
46.91	2308
46.92	2292
46.93	2310
46.94	2379
46.95	2396
46.96	2389
46.97	2354
46.98	2360
46.99	2364
47.0	2365
47.01	2347
47.02	2325
47.03	2363
47.04	2368
47.05	2358
47.06	2348
47.07	2354
47.08	2330
47.09	2320
47.1	2366
47.11	2404
47.12	2404
47.13	2406
47.14	2392
47.15	2378
47.16	2394
47.17	2422
47.18	2390
47.19	2369
47.2	2398
47.21	2418
47.22	2441
47.23	2425
47.24	2468
47.25	2493
47.26	2503
47.27	2506
47.28	2502
47.29	2500
47.3	2504
47.31	2489
47.32	2479
47.33	2487
47.34	2510
47.35	2500
47.36	2474
47.37	2501
47.38	2491
47.39	2433
47.4	2408
47.41	2418
47.42	2411
47.43	2416
47.44	2429
47.45	2445
47.46	2387
47.47	2372
47.48	2417
47.49	2395
47.5	2411
47.51	2430
47.52	2405
47.53	2388
47.54	2381
47.55	2357
47.56	2334
47.57	2357
47.58	2370
47.59	2366
47.6	2354
47.61	2366
47.62	2318
47.63	2340
47.64	2356
47.65	2377
47.66	2370
47.67	2329
47.68	2312
47.69	2292
47.7	2318
47.71	2323
47.72	2296
47.73	2313
47.74	2338
47.75	2335
47.76	2361
47.77	2374
47.78	2399
47.79	2386
47.8	2359
47.81	2347
47.82	2351
47.83	2363
47.84	2375
47.85	2377
47.86	2340
47.87	2340
47.88	2369
47.89	2395
47.9	2373
47.91	2348
47.92	2370
47.93	2386
47.94	2386
47.95	2377
47.96	2342
47.97	2330
47.98	2334
47.99	2324
48.0	2334
48.01	2323
48.02	2319
48.03	2369
48.04	2383
48.05	2392
48.06	2394
48.07	2380
48.08	2371
48.09	2348
48.1	2354
48.11	2354
48.12	2331
48.13	2327
48.14	2317
48.15	2345
48.16	2366
48.17	2360
48.18	2375
48.19	2372
48.2	2353
48.21	2343
48.22	2339
48.23	2364
48.24	2366
48.25	2349
48.26	2340
48.27	2345
48.28	2382
48.29	2346
48.3	2308
48.31	2319
48.32	2372
48.33	2392
48.34	2377
48.35	2394
48.36	2410
48.37	2403
48.38	2375
48.39	2349
48.4	2328
48.41	2317
48.42	2358
48.43	2433
48.44	2402
48.45	2340
48.46	2396
48.47	2444
48.48	2441
48.49	2440
48.5	2386
48.51	2325
48.52	2313
48.53	2369
48.54	2372
48.55	2364
48.56	2392
48.57	2377
48.58	2367
48.59	2388
48.6	2375
48.61	2337
48.62	2335
48.63	2343
48.64	2322
48.65	2325
48.66	2321
48.67	2346
48.68	2359
48.69	2381
48.7	2345
48.71	2316
48.72	2364
48.73	2413
48.74	2390
48.75	2359
48.76	2384
48.77	2374
48.78	2341
48.79	2349
48.8	2378
48.81	2398
48.82	2406
48.83	2393
48.84	2392
48.85	2388
48.86	2359
48.87	2364
48.88	2402
48.89	2413
48.9	2419
48.91	2430
48.92	2443
48.93	2435
48.94	2435
48.95	2429
48.96	2433
48.97	2465
48.98	2487
48.99	2486
49.0	2476
49.01	2481
49.02	2469
49.03	2459
49.04	2474
49.05	2489
49.06	2502
49.07	2559
49.08	2575
49.09	2585
49.1	2592
49.11	2603
49.12	2613
49.13	2639
49.14	2726
49.15	2764
49.16	2767
49.17	2774
49.18	2791
49.19	2856
49.2	2919
49.21	2986
49.22	3068
49.23	3146
49.24	3233
49.25	3287
49.26	3315
49.27	3380
49.28	3501
49.29	3628
49.3	3696
49.31	3711
49.32	3714
49.33	3712
49.34	3764
49.35	3825
49.36	3820
49.37	3773
49.38	3741
49.39	3730
49.4	3668
49.41	3608
49.42	3609
49.43	3606
49.44	3567
49.45	3530
49.46	3473
49.47	3394
49.48	3359
49.49	3335
49.5	3249
49.51	3198
49.52	3166
49.53	3127
49.54	3065
49.55	2951
49.56	2898
49.57	2840
49.58	2747
49.59	2707
49.6	2713
49.61	2681
49.62	2623
49.63	2609
49.64	2636
49.65	2642
49.66	2598
49.67	2533
49.68	2500
49.69	2494
49.7	2506
49.71	2507
49.72	2497
49.73	2468
49.74	2426
49.75	2406
49.76	2370
49.77	2352
49.78	2373
49.79	2362
49.8	2351
49.81	2377
49.82	2353
49.83	2336
49.84	2379
49.85	2388
49.86	2395
49.87	2409
49.88	2367
49.89	2354
49.9	2374
49.91	2350
49.92	2306
49.93	2286
49.94	2318
49.95	2325
49.96	2297
49.97	2273
49.98	2280
49.99	2274
50.0	2241
50.01	2235
50.02	2232
50.03	2254
50.04	2317
50.05	2324
50.06	2300
50.07	2317
50.08	2283
50.09	2195
50.1	2174
50.11	2240
50.12	2247
50.13	2229
50.14	2251
50.15	2243
50.16	2242
50.17	2232
50.18	2245
50.19	2293
50.2	2295
50.21	2277
50.22	2237
50.23	2170
50.24	2179
50.25	2230
50.26	2231
50.27	2183
50.28	2177
50.29	2208
50.3	2213
50.31	2213
50.32	2194
50.33	2179
50.34	2170
50.35	2180
50.36	2202
50.37	2180
50.38	2201
50.39	2239
50.4	2254
50.41	2242
50.42	2207
50.43	2198
50.44	2209
50.45	2220
50.46	2234
50.47	2233
50.48	2227
50.49	2220
50.5	2202
50.51	2201
50.52	2210
50.53	2227
50.54	2242
50.55	2202
50.56	2172
50.57	2177
50.58	2183
50.59	2207
50.6	2203
50.61	2191
50.62	2179
50.63	2185
50.64	2231
50.65	2216
50.66	2187
50.67	2205
50.68	2209
50.69	2214
50.7	2235
50.71	2232
50.72	2223
50.73	2228
50.74	2221
50.75	2207
50.76	2185
50.77	2187
50.78	2199
50.79	2190
50.8	2184
50.81	2164
50.82	2192
50.83	2232
50.84	2224
50.85	2217
50.86	2211
50.87	2181
50.88	2144
50.89	2147
50.9	2147
50.91	2128
50.92	2105
50.93	2121
50.94	2176
50.95	2198
50.96	2200
50.97	2209
50.98	2177
50.99	2175
51.0	2177
51.01	2180
51.02	2219
51.03	2218
51.04	2237
51.05	2258
51.06	2242
51.07	2218
51.08	2212
51.09	2228
51.1	2219
51.11	2204
51.12	2206
51.13	2182
51.14	2173
51.15	2184
51.16	2170
51.17	2197
51.18	2201
51.19	2192
51.2	2224
51.21	2258
51.22	2252
51.23	2198
51.24	2161
51.25	2161
51.26	2189
51.27	2174
51.28	2185
51.29	2189
51.3	2176
51.31	2210
51.32	2184
51.33	2140
51.34	2164
51.35	2193
51.36	2186
51.37	2207
51.38	2220
51.39	2192
51.4	2194
51.41	2181
51.42	2172
51.43	2202
51.44	2178
51.45	2172
51.46	2182
51.47	2170
51.48	2183
51.49	2193
51.5	2209
51.51	2209
51.52	2177
51.53	2166
51.54	2170
51.55	2170
51.56	2175
51.57	2164
51.58	2143
51.59	2139
51.6	2153
51.61	2177
51.62	2195
51.63	2154
51.64	2142
51.65	2158
51.66	2149
51.67	2171
51.68	2170
51.69	2144
51.7	2124
51.71	2167
51.72	2209
51.73	2185
51.74	2167
51.75	2162
51.76	2168
51.77	2176
51.78	2183
51.79	2195
51.8	2179
51.81	2176
51.82	2163
51.83	2168
51.84	2188
51.85	2153
51.86	2152
51.87	2137
51.88	2115
51.89	2142
51.9	2166
51.91	2166
51.92	2158
51.93	2168
51.94	2165
51.95	2135
51.96	2102
51.97	2130
51.98	2164
51.99	2143
52.0	2143
52.01	2181
52.02	2176
52.03	2182
52.04	2160
52.05	2119
52.06	2135
52.07	2141
52.08	2105
52.09	2107
52.1	2128
52.11	2138
52.12	2148
52.13	2171
52.14	2185
52.15	2184
52.16	2198
52.17	2188
52.18	2173
52.19	2152
52.2	2153
52.21	2134
52.22	2098
52.23	2128
52.24	2142
52.25	2137
52.26	2166
52.27	2175
52.28	2171
52.29	2156
52.3	2157
52.31	2152
52.32	2129
52.33	2138
52.34	2131
52.35	2132
52.36	2152
52.37	2168
52.38	2187
52.39	2140
52.4	2103
52.41	2121
52.42	2125
52.43	2153
52.44	2160
52.45	2123
52.46	2130
52.47	2185
52.48	2194
52.49	2168
52.5	2148
52.51	2122
52.52	2128
52.53	2152
52.54	2163
52.55	2137
52.56	2101
52.57	2121
52.58	2161
52.59	2184
52.6	2207
52.61	2176
52.62	2133
52.63	2165
52.64	2191
52.65	2188
52.66	2206
52.67	2202
52.68	2156
52.69	2118
52.7	2099
52.71	2127
52.72	2157
52.73	2121
52.74	2105
52.75	2134
52.76	2165
52.77	2140
52.78	2135
52.79	2138
52.8	2141
52.81	2165
52.82	2169
52.83	2163
52.84	2175
52.85	2179
52.86	2179
52.87	2174
52.88	2182
52.89	2215
52.9	2191
52.91	2195
52.92	2233
52.93	2191
52.94	2160
52.95	2171
52.96	2158
52.97	2196
52.98	2220
52.99	2219
53.0	2230
53.01	2235
53.02	2238
53.03	2223
53.04	2193
53.05	2216
53.06	2261
53.07	2260
53.08	2267
53.09	2257
53.1	2227
53.11	2245
53.12	2278
53.13	2313
53.14	2310
53.15	2312
53.16	2338
53.17	2376
53.18	2379
53.19	2391
53.2	2411
53.21	2396
53.22	2426
53.23	2444
53.24	2477
53.25	2525
53.26	2510
53.27	2483
53.28	2513
53.29	2526
53.3	2527
53.31	2524
53.32	2506
53.33	2490
53.34	2504
53.35	2512
53.36	2487
53.37	2464
53.38	2478
53.39	2470
53.4	2429
53.41	2399
53.42	2369
53.43	2392
53.44	2404
53.45	2369
53.46	2323
53.47	2338
53.48	2331
53.49	2320
53.5	2312
53.51	2305
53.52	2333
53.53	2351
53.54	2306
53.55	2278
53.56	2264
53.57	2236
53.58	2259
53.59	2264
53.6	2277
53.61	2289
53.62	2251
53.63	2219
53.64	2242
53.65	2229
53.66	2198
53.67	2194
53.68	2214
53.69	2216
53.7	2221
53.71	2216
53.72	2196
53.73	2193
53.74	2197
53.75	2203
53.76	2198
53.77	2180
53.78	2167
53.79	2197
53.8	2218
53.81	2194
53.82	2174
53.83	2170
53.84	2159
53.85	2141
53.86	2156
53.87	2193
53.88	2177
53.89	2157
53.9	2189
53.91	2199
53.92	2200
53.93	2180
53.94	2147
53.95	2178
53.96	2178
53.97	2175
53.98	2181
53.99	2188
54.0	2162
54.01	2129
54.02	2153
54.03	2167
54.04	2188
54.05	2203
54.06	2159
54.07	2148
54.08	2174
54.09	2199
54.1	2230
54.11	2213
54.12	2202
54.13	2220
54.14	2210
54.15	2226
54.16	2225
54.17	2177
54.18	2163
54.19	2157
54.2	2178
54.21	2220
54.22	2216
54.23	2230
54.24	2202
54.25	2185
54.26	2187
54.27	2192
54.28	2234
54.29	2252
54.3	2248
54.31	2238
54.32	2230
54.33	2212
54.34	2236
54.35	2261
54.36	2237
54.37	2214
54.38	2218
54.39	2241
54.4	2273
54.41	2203
54.42	2209
54.43	2286
54.44	2308
54.45	2283
54.46	2258
54.47	2260
54.48	2255
54.49	2243
54.5	2276
54.51	2285
54.52	2272
54.53	2295
54.54	2309
54.55	2311
54.56	2323
54.57	2326
54.58	2276
54.59	2284
54.6	2341
54.61	2314
54.62	2323
54.63	2323
54.64	2349
54.65	2380
54.66	2393
54.67	2396
54.68	2396
54.69	2389
54.7	2419
54.71	2514
54.72	2518
54.73	2467
54.74	2470
54.75	2480
54.76	2521
54.77	2560
54.78	2601
54.79	2628
54.8	2658
54.81	2701
54.82	2714
54.83	2715
54.84	2758
54.85	2783
54.86	2827
54.87	2901
54.88	2905
54.89	2955
54.9	3005
54.91	3001
54.92	3101
54.93	3204
54.94	3269
54.95	3297
54.96	3350
54.97	3418
54.98	3525
54.99	3648
55.0	3706
55.01	3802
55.02	3975
55.03	4135
55.04	4300
55.05	4507
55.06	4670
55.07	4914
55.08	5165
55.09	5315
55.1	5478
55.11	5731
55.12	5950
55.13	6084
55.14	6258
55.15	6473
55.16	6635
55.17	6698
55.18	6668
55.19	6588
55.2	6512
55.21	6475
55.22	6428
55.23	6308
55.24	6166
55.25	6175
55.26	6154
55.27	5960
55.28	5777
55.29	5632
55.3	5581
55.31	5545
55.32	5406
55.33	5176
55.34	4962
55.35	4875
55.36	4790
55.37	4629
55.38	4437
55.39	4258
55.4	4156
55.41	4067
55.42	3931
55.43	3785
55.44	3622
55.45	3491
55.46	3411
55.47	3347
55.48	3281
55.49	3246
55.5	3204
55.51	3077
55.52	2998
55.53	2946
55.54	2900
55.55	2850
55.56	2809
55.57	2769
55.58	2741
55.59	2720
55.6	2717
55.61	2681
55.62	2622
55.63	2605
55.64	2568
55.65	2505
55.66	2490
55.67	2489
55.68	2487
55.69	2502
55.7	2448
55.71	2414
55.72	2421
55.73	2453
55.74	2447
55.75	2361
55.76	2341
55.77	2332
55.78	2319
55.79	2290
55.8	2321
55.81	2332
55.82	2332
55.83	2352
55.84	2357
55.85	2288
55.86	2280
55.87	2324
55.88	2294
55.89	2246
55.9	2230
55.91	2220
55.92	2212
55.93	2223
55.94	2223
55.95	2258
55.96	2258
55.97	2224
55.98	2192
55.99	2199
56.0	2190
56.01	2170
56.02	2209
56.03	2239
56.04	2226
56.05	2188
56.06	2168
56.07	2186
56.08	2220
56.09	2235
56.1	2257
56.11	2225
56.12	2200
56.13	2158
56.14	2165
56.15	2156
56.16	2171
56.17	2202
56.18	2222
56.19	2242
56.2	2241
56.21	2205
56.22	2161
56.23	2149
56.24	2160
56.25	2157
56.26	2159
56.27	2156
56.28	2155
56.29	2177
56.3	2217
56.31	2240
56.32	2210
56.33	2164
56.34	2082
56.35	2112
56.36	2162
56.37	2163
56.38	2136
56.39	2103
56.4	2090
56.41	2122
56.42	2132
56.43	2091
56.44	2084
56.45	2117
56.46	2128
56.47	2129
56.48	2141
56.49	2174
56.5	2193
56.51	2167
56.52	2178
56.53	2179
56.54	2141
56.55	2126
56.56	2158
56.57	2178
56.58	2160
56.59	2160
56.6	2202
56.61	2216
56.62	2247
56.63	2251
56.64	2270
56.65	2272
56.66	2276
56.67	2294
56.68	2352
56.69	2364
56.7	2345
56.71	2285
56.72	2258
56.73	2257
56.74	2215
56.75	2230
56.76	2246
56.77	2253
56.78	2288
56.79	2270
56.8	2210
56.81	2252
56.82	2275
56.83	2279
56.84	2232
56.85	2231
56.86	2275
56.87	2273
56.88	2239
56.89	2221
56.9	2223
56.91	2241
56.92	2243
56.93	2274
56.94	2321
56.95	2300
56.96	2264
56.97	2276
56.98	2263
56.99	2335
57.0	2333
57.01	2283
57.02	2292
57.03	2267
57.04	2235
57.05	2245
57.06	2282
57.07	2332
57.08	2308
57.09	2286
57.1	2273
57.11	2226
57.12	2201
57.13	2192
57.14	2202
57.15	2241
57.16	2221
57.17	2191
57.18	2185
57.19	2170
57.2	2187
57.21	2211
57.22	2174
57.23	2181
57.24	2159
57.25	2115
57.26	2147
57.27	2200
57.28	2195
57.29	2162
57.3	2169
57.31	2157
57.32	2107
57.33	2165
57.34	2160
57.35	2103
57.36	2093
57.37	2135
57.38	2136
57.39	2096
57.4	2098
57.41	2046
57.42	2041
57.43	2101
57.44	2101
57.45	2079
57.46	2078
57.47	2071
57.48	2096
57.49	2116
57.5	2078
57.51	2067
57.52	2052
57.53	2045
57.54	2047
57.55	2079
57.56	2117
57.57	2092
57.58	2073
57.59	2018
57.6	2034
57.61	2021
57.62	2012
57.63	2038
57.64	2051
57.65	2065
57.66	2087
57.67	2066
57.68	2034
57.69	2066
57.7	2114
57.71	2087
57.72	2061
57.73	2061
57.74	2044
57.75	2040
57.76	2044
57.77	2067
57.78	2030
57.79	2003
57.8	1995
57.81	2003
57.82	2039
57.83	2050
57.84	2030
57.85	2050
57.86	2063
57.87	2017
57.88	2031
57.89	2022
57.9	2064
57.91	2042
57.92	2012
57.93	2006
57.94	2000
57.95	1984
57.96	2034
57.97	2079
57.98	2100
57.99	2082
58.0	2016
58.01	1989
58.02	2017
58.03	2022
58.04	2033
58.05	2043
58.06	2013
58.07	2008
58.08	2014
58.09	2014
58.1	2011
58.11	2028
58.12	2008
58.13	2018
58.14	2034
58.15	2024
58.16	2011
58.17	2037
58.18	2073
58.19	2013
58.2	2002
58.21	2021
58.22	2023
58.23	2023
58.24	2039
58.25	2028
58.26	2002
58.27	2002
58.28	1979
58.29	1984
58.3	2030
58.31	2024
58.32	2010
58.33	2037
58.34	2004
58.35	2011
58.36	2060
58.37	2035
58.38	2009
58.39	2015
58.4	2034
58.41	2006
58.42	2017
58.43	2027
58.44	2054
58.45	2046
58.46	1995
58.47	2030
58.48	2093
58.49	2024
58.5	2003
58.51	2007
58.52	1997
58.53	1985
58.54	1988
58.55	2031
58.56	2080
58.57	2101
58.58	2068
58.59	2070
58.6	2026
58.61	2031
58.62	2006
58.63	1993
58.64	2018
58.65	2046
58.66	2083
58.67	2119
58.68	2092
58.69	2039
58.7	2031
58.71	2021
58.72	2051
58.73	2085
58.74	2103
58.75	2118
58.76	2097
58.77	2096
58.78	2089
58.79	2104
58.8	2161
58.81	2181
58.82	2095
58.83	2058
58.84	2103
58.85	2090
58.86	2090
58.87	2040
58.88	2017
58.89	2078
58.9	2104
58.91	2035
58.92	2050
58.93	2052
58.94	2077
58.95	2083
58.96	2062
58.97	2053
58.98	2093
58.99	2106
59.0	2093
59.01	2083
59.02	2048
59.03	2043
59.04	2035
59.05	2037
59.06	2079
59.07	2060
59.08	2053
59.09	2076
59.1	2071
59.11	2049
59.12	2048
59.13	2021
59.14	2043
59.15	2077
59.16	2111
59.17	2099
59.18	2072
59.19	2036
59.2	2022
59.21	2021
59.22	1988
59.23	2060
59.24	2116
59.25	2055
59.26	1963
59.27	2009
59.28	2059
59.29	2051
59.3	2024
59.31	2042
59.32	2050
59.33	2054
59.34	2052
59.35	2106
59.36	2115
59.37	2121
59.38	2144
59.39	2123
59.4	2128
59.41	2121
59.42	2136
59.43	2112
59.44	2119
59.45	2071
59.46	2024
59.47	2048
59.48	2103
59.49	2114
59.5	2082
59.51	2069
59.52	2092
59.53	2086
59.54	2075
59.55	2095
59.56	2086
59.57	2082
59.58	2096
59.59	2111
59.6	2093
59.61	2050
59.62	2053
59.63	2042
59.64	2009
59.65	2026
59.66	2027
59.67	2000
59.68	1996
59.69	2007
59.7	2006
59.71	2055
59.72	2039
59.73	2028
59.74	1983
59.75	1963
59.76	1952
59.77	1997
59.78	2011
59.79	2021
59.8	1966
59.81	2003
59.82	2032
59.83	2044
59.84	2011
59.85	1981
59.86	1993
59.87	2019
59.88	2034
59.89	2057
59.9	2027
59.91	1991
59.92	1978
59.93	1965
59.94	2036
59.95	2035
59.96	2034
59.97	2010
59.98	2031
59.99	2044
60.0	2049
60.01	2008
60.02	2001
60.03	2022
60.04	2067
60.05	2099
60.06	2066
60.07	2040
60.08	1995
60.09	2009
60.1	2030
60.11	1995
60.12	1967
60.13	2024
60.14	2009
60.15	2041
60.16	2041
60.17	2021
60.18	2031
60.19	2056
60.2	2076
60.21	2087
60.22	2104
60.23	2039
60.24	1999
60.25	2082
60.26	2097
60.27	2042
60.28	2049
60.29	2083
60.3	2119
60.31	2117
60.32	2123
60.33	2089
60.34	2039
60.35	2056
60.36	2106
60.37	2135
60.38	2122
60.39	2144
60.4	2123
60.41	2085
60.42	2099
60.43	2142
60.44	2145
60.45	2178
60.46	2211
60.47	2210
60.48	2238
60.49	2268
60.5	2265
60.51	2283
60.52	2300
60.53	2346
60.54	2431
60.55	2463
60.56	2391
60.57	2462
60.58	2487
60.59	2457
60.6	2447
60.61	2464
60.62	2491
60.63	2477
60.64	2477
60.65	2486
60.66	2473
60.67	2469
60.68	2459
60.69	2450
60.7	2434
60.71	2451
60.72	2424
60.73	2391
60.74	2276
60.75	2279
60.76	2307
60.77	2335
60.78	2335
60.79	2348
60.8	2324
60.81	2229
60.82	2256
60.83	2269
60.84	2244
60.85	2170
60.86	2166
60.87	2151
60.88	2129
60.89	2137
60.9	2161
60.91	2154
60.92	2134
60.93	2131
60.94	2126
60.95	2096
60.96	2122
60.97	2092
60.98	2086
60.99	2061
61.0	2006
61.01	2046
61.02	2028
61.03	2046
61.04	2068
61.05	2063
61.06	2064
61.07	2034
61.08	1980
61.09	2006
61.1	2047
61.11	1990
61.12	1975
61.13	1988
61.14	1986
61.15	1968
61.16	1990
61.17	1987
61.18	1974
61.19	1984
61.2	1967
61.21	2009
61.22	2038
61.23	2002
61.24	2044
61.25	2042
61.26	1958
61.27	1983
61.28	2019
61.29	2027
61.3	2016
61.31	1990
61.32	1983
61.33	1956
61.34	1974
61.35	2019
61.36	1995
61.37	2011
61.38	1973
61.39	1977
61.4	1993
61.41	1951
61.42	1957
61.43	2021
61.44	2013
61.45	1990
61.46	2015
61.47	2008
61.48	1995
61.49	2031
61.5	1998
61.51	1948
61.52	1927
61.53	1957
61.54	1942
61.55	1980
61.56	1962
61.57	1953
61.58	1982
61.59	2000
61.6	1978
61.61	1992
61.62	2015
61.63	2016
61.64	1978
61.65	1988
61.66	1928
61.67	1943
61.68	1994
61.69	1997
61.7	1978
61.71	1955
61.72	2025
61.73	2040
61.74	2009
61.75	2024
61.76	2018
61.77	1966
61.78	1950
61.79	1961
61.8	1996
61.81	1984
61.82	1973
61.83	1975
61.84	1978
61.85	1989
61.86	1999
61.87	2031
61.88	1977
61.89	1941
61.9	1982
61.91	1992
61.92	2000
61.93	1986
61.94	1975
61.95	2006
61.96	1992
61.97	1961
61.98	1987
61.99	2006
62.0	1974
62.01	1957
62.02	2012
62.03	2082
62.04	2017
62.05	2005
62.06	2060
62.07	1995
62.08	2034
62.09	2063
62.1	2054
62.11	2046
62.12	1997
62.13	2017
62.14	2025
62.15	2005
62.16	2015
62.17	2061
62.18	2045
62.19	2005
62.2	2017
62.21	2084
62.22	2039
62.23	2030
62.24	2054
62.25	2051
62.26	2010
62.27	2094
62.28	2128
62.29	2112
62.3	2086
62.31	2104
62.32	2081
62.33	2184
62.34	2140
62.35	2125
62.36	2171
62.37	2183
62.38	2171
62.39	2087
62.4	2071
62.41	2071
62.42	2059
62.43	2061
62.44	2082
62.45	2130
62.46	2124
62.47	2105
62.48	2126
62.49	2112
62.5	2102
62.51	2093
62.52	2070
62.53	2053
62.54	2023
62.55	2045
62.56	2042
62.57	2046
62.58	2014
62.59	1992
62.6	1979
62.61	1989
62.62	2034
62.63	2037
62.64	2011
62.65	1985
62.66	1950
62.67	1965
62.68	2024
62.69	2028
62.7	2009
62.71	2023
62.72	1996
62.73	1970
62.74	1996
62.75	2041
62.76	2014
62.77	2009
62.78	1999
62.79	2012
62.8	2034
62.81	2027
62.82	1984
62.83	1992
62.84	1975
62.85	1986
62.86	1987
62.87	1936
62.88	1980
62.89	1963
62.9	2027
62.91	1977
62.92	2000
62.93	1952
62.94	1961
62.95	1929
62.96	1909
62.97	1963
62.98	2024
62.99	2013
63.0	2011
63.01	1967
63.02	2008
63.03	2019
63.04	1950
63.05	1943
63.06	1929
63.07	1915
63.08	1931
63.09	1957
63.1	1956
63.11	1984
63.12	2020
63.13	1933
63.14	1954
63.15	2001
63.16	1982
63.17	1956
63.18	1997
63.19	1974
63.2	1981
63.21	1994
63.22	1953
63.23	1966
63.24	1980
63.25	2021
63.26	2025
63.27	2033
63.28	2016
63.29	2013
63.3	1989
63.31	1992
63.32	1987
63.33	1974
63.34	1954
63.35	2008
63.36	2035
63.37	2049
63.38	1999
63.39	1972
63.4	2009
63.41	2032
63.42	1975
63.43	1997
63.44	2060
63.45	2052
63.46	2010
63.47	1998
63.48	2028
63.49	1989
63.5	2051
63.51	2035
63.52	2061
63.53	2020
63.54	2024
63.55	2029
63.56	2011
63.57	2039
63.58	2117
63.59	2055
63.6	2048
63.61	2035
63.62	2055
63.63	2076
63.64	2033
63.65	2028
63.66	2056
63.67	2051
63.68	2083
63.69	2061
63.7	2054
63.71	2099
63.72	2128
63.73	2119
63.74	2126
63.75	2137
63.76	2183
63.77	2088
63.78	2061
63.79	2131
63.8	2186
63.81	2150
63.82	2130
63.83	2140
63.84	2138
63.85	2210
63.86	2300
63.87	2321
63.88	2287
63.89	2296
63.9	2283
63.91	2296
63.92	2306
63.93	2340
63.94	2301
63.95	2403
63.96	2469
63.97	2473
63.98	2546
63.99	2598
64.0	2612
64.01	2610
64.02	2656
64.03	2719
64.04	2774
64.05	2759
64.06	2807
64.07	2839
64.08	2812
64.09	2790
64.1	2750
64.11	2755
64.12	2767
64.13	2823
64.14	2698
64.15	2690
64.16	2663
64.17	2710
64.18	2607
64.19	2609
64.2	2625
64.21	2651
64.22	2612
64.23	2672
64.24	2614
64.25	2573
64.26	2541
64.27	2524
64.28	2539
64.29	2531
64.3	2448
64.31	2395
64.32	2395
64.33	2373
64.34	2304
64.35	2276
64.36	2213
64.37	2254
64.38	2283
64.39	2297
64.4	2295
64.41	2238
64.42	2191
64.43	2257
64.44	2204
64.45	2160
64.46	2130
64.47	2151
64.48	2155
64.49	2113
64.5	2044
64.51	2045
64.52	2031
64.53	2094
64.54	2080
64.55	2110
64.56	2100
64.57	2031
64.58	2071
64.59	2081
64.6	2057
64.61	2077
64.62	2065
64.63	2065
64.64	2035
64.65	2015
64.66	1999
64.67	2001
64.68	2006
64.69	1994
64.7	2004
64.71	1976
64.72	1987
64.73	2025
64.74	1989
64.75	1991
64.76	2002
64.77	1988
64.78	2022
64.79	2115
64.8	2058
64.81	2086
64.82	1993
64.83	1949
64.84	1990
64.85	2076
64.86	2085
64.87	2001
64.88	2068
64.89	2095
64.9	2046
64.91	2034
64.92	2031
64.93	2067
64.94	2100
64.95	2064
64.96	2034
64.97	2021
64.98	1998
64.99	2015
65.0	2020
65.01	2026
65.02	2089
65.03	2064
65.04	2056
65.05	2065
65.06	2039
65.07	2036
65.08	2008
65.09	2079
65.1	2079
65.11	2054
65.12	2046
65.13	2084
65.14	2091
65.15	2075
65.16	2051
65.17	2039
65.18	2074
65.19	2125
65.2	2132
65.21	2107
65.22	2063
65.23	2106
65.24	2138
65.25	2146
65.26	2176
65.27	2146
65.28	2108
65.29	2103
65.3	2137
65.31	2165
65.32	2187
65.33	2203
65.34	2200
65.35	2161
65.36	2124
65.37	2202
65.38	2200
65.39	2212
65.4	2244
65.41	2292
65.42	2303
65.43	2328
65.44	2344
65.45	2318
65.46	2393
65.47	2343
65.48	2378
65.49	2401
65.5	2468
65.51	2528
65.52	2637
65.53	2550
65.54	2571
65.55	2655
65.56	2763
65.57	2776
65.58	2823
65.59	2870
65.6	2849
65.61	3023
65.62	3048
65.63	3049
65.64	3183
65.65	3265
65.66	3420
65.67	3472
65.68	3567
65.69	3625
65.7	3765
65.71	3801
65.72	3895
65.73	4067
65.74	4074
65.75	4121
65.76	4129
65.77	4165
65.78	4171
65.79	4174
65.8	4095
65.81	4179
65.82	4199
65.83	4149
65.84	4031
65.85	3980
65.86	3985
65.87	3951
65.88	3884
65.89	3855
65.9	3862
65.91	3776
65.92	3773
65.93	3675
65.94	3688
65.95	3668
65.96	3521
65.97	3473
65.98	3470
65.99	3346
66.0	3271
66.01	3258
66.02	3184
66.03	3115
66.04	2979
66.05	2887
66.06	2876
66.07	2755
66.08	2744
66.09	2684
66.1	2688
66.11	2691
66.12	2605
66.13	2542
66.14	2449
66.15	2384
66.16	2393
66.17	2387
66.18	2330
66.19	2340
66.2	2321
66.21	2352
66.22	2353
66.23	2264
66.24	2228
66.25	2227
66.26	2231
66.27	2192
66.28	2193
66.29	2233
66.3	2150
66.31	2173
66.32	2085
66.33	2137
66.34	2132
66.35	2125
66.36	2063
66.37	2062
66.38	2089
66.39	2075
66.4	2103
66.41	2105
66.42	2081
66.43	2133
66.44	2053
66.45	2065
66.46	2073
66.47	2077
66.48	2058
66.49	2030
66.5	2056
66.51	2067
66.52	2064
66.53	2011
66.54	2021
66.55	2057
66.56	2064
66.57	2029
66.58	2017
66.59	2014
66.6	2054
66.61	2026
66.62	2001
66.63	2014
66.64	2005
66.65	2000
66.66	2014
66.67	2053
66.68	1992
66.69	2043
66.7	1994
66.71	1939
66.72	2021
66.73	2036
66.74	2000
66.75	1998
66.76	1956
66.77	1924
66.78	1949
66.79	2023
66.8	2050
66.81	1951
66.82	1933
66.83	1982
66.84	1976
66.85	1965
66.86	1974
66.87	2010
66.88	2019
66.89	2015
66.9	2026
66.91	2012
66.92	2003
66.93	2000
66.94	2044
66.95	1995
66.96	2031
66.97	1985
66.98	1984
66.99	2000
67.0	2002
67.01	1983
67.02	2044
67.03	2041
67.04	1995
67.05	1993
67.06	1980
67.07	2016
67.08	2049
67.09	2056
67.1	2086
67.11	2040
67.12	1990
67.13	2012
67.14	2082
67.15	2111
67.16	2130
67.17	2049
67.18	2143
67.19	2107
67.2	2062
67.21	2114
67.22	2086
67.23	2123
67.24	2123
67.25	2138
67.26	2155
67.27	2205
67.28	2179
67.29	2263
67.3	2283
67.31	2310
67.32	2290
67.33	2311
67.34	2350
67.35	2347
67.36	2385
67.37	2414
67.38	2448
67.39	2442
67.4	2466
67.41	2457
67.42	2482
67.43	2467
67.44	2480
67.45	2465
67.46	2451
67.47	2466
67.48	2461
67.49	2451
67.5	2491
67.51	2424
67.52	2389
67.53	2394
67.54	2469
67.55	2419
67.56	2434
67.57	2407
67.58	2327
67.59	2338
67.6	2341
67.61	2354
67.62	2369
67.63	2352
67.64	2342
67.65	2282
67.66	2253
67.67	2263
67.68	2281
67.69	2246
67.7	2203
67.71	2227
67.72	2182
67.73	2188
67.74	2095
67.75	2120
67.76	2180
67.77	2153
67.78	2188
67.79	2116
67.8	2083
67.81	1989
67.82	2035
67.83	2016
67.84	2014
67.85	2026
67.86	2039
67.87	2052
67.88	2042
67.89	2000
67.9	2018
67.91	2048
67.92	2011
67.93	1985
67.94	1997
67.95	1953
67.96	1958
67.97	2025
67.98	2001
67.99	2000
68.0	2004
68.01	1976
68.02	1944
68.03	2005
68.04	1996
68.05	1987
68.06	1956
68.07	1925
68.08	1888
68.09	1931
68.1	1969
68.11	1925
68.12	1857
68.13	1891
68.14	1913
68.15	1959
68.16	1898
68.17	1869
68.18	1876
68.19	1902
68.2	1944
68.21	1979
68.22	1913
68.23	1904
68.24	1932
68.25	1961
68.26	1928
68.27	1915
68.28	1952
68.29	1957
68.3	1935
68.31	1928
68.32	1932
68.33	1906
68.34	1850
68.35	1828
68.36	1905
68.37	1888
68.38	1916
68.39	1904
68.4	1941
68.41	1937
68.42	1913
68.43	1887
68.44	1900
68.45	1909
68.46	1894
68.47	1925
68.48	1989
68.49	1991
68.5	1920
68.51	1920
68.52	1928
68.53	1893
68.54	1894
68.55	1930
68.56	1909
68.57	1919
68.58	1919
68.59	1942
68.6	1954
68.61	1959
68.62	1903
68.63	1930
68.64	1923
68.65	1963
68.66	1922
68.67	1915
68.68	1955
68.69	1937
68.7	1938
68.71	1961
68.72	1969
68.73	1913
68.74	1901
68.75	1900
68.76	1963
68.77	1963
68.78	2013
68.79	1947
68.8	1904
68.81	1944
68.82	2049
68.83	1990
68.84	1982
68.85	1985
68.86	2015
68.87	1992
68.88	2010
68.89	2049
68.9	2022
68.91	1994
68.92	2041
68.93	2081
68.94	2132
68.95	2135
68.96	2122
68.97	2081
68.98	2070
68.99	2144
69.0	2121
69.01	2212
69.02	2178
69.03	2190
69.04	2226
69.05	2241
69.06	2216
69.07	2229
69.08	2225
69.09	2268
69.1	2219
69.11	2172
69.12	2177
69.13	2168
69.14	2219
69.15	2262
69.16	2205
69.17	2138
69.18	2203
69.19	2248
69.2	2223
69.21	2155
69.22	2201
69.23	2182
69.24	2130
69.25	2145
69.26	2138
69.27	2148
69.28	2134
69.29	2157
69.3	2133
69.31	2126
69.32	2169
69.33	2112
69.34	2065
69.35	2055
69.36	2135
69.37	2103
69.38	2034
69.39	2005
69.4	1971
69.41	2006
69.42	2015
69.43	2028
69.44	1957
69.45	1959
69.46	1983
69.47	2015
69.48	2014
69.49	1949
69.5	1920
69.51	1916
69.52	1952
69.53	1983
69.54	2014
69.55	1924
69.56	1899
69.57	1974
69.58	1960
69.59	1958
69.6	1948
69.61	1955
69.62	1934
69.63	1959
69.64	1932
69.65	1901
69.66	1958
69.67	2013
69.68	1926
69.69	1937
69.7	1935
69.71	1922
69.72	1884
69.73	1856
69.74	1910
69.75	1918
69.76	1899
69.77	1938
69.78	1922
69.79	1903
69.8	1911
69.81	1872
69.82	1876
69.83	1889
69.84	1909
69.85	1926
69.86	1934
69.87	1937
69.88	1903
69.89	1912
69.9	1888
69.91	1866
69.92	1866
69.93	1858
69.94	1891
69.95	1879
69.96	1895
69.97	1932
69.98	1917
69.99	1896
70.0	1912
70.01	1941
70.02	1917
70.03	1897
70.04	1847
70.05	1854
70.06	1851
70.07	1860
70.08	1876
70.09	1953
70.1	1952
70.11	1843
70.12	1876
70.13	1851
70.14	1827
70.15	1844
70.16	1854
70.17	1848
70.18	1849
70.19	1913
70.2	1924
70.21	1852
70.22	1858
70.23	1867
70.24	1870
70.25	1869
70.26	1877
70.27	1907
70.28	1878
70.29	1888
70.3	1862
70.31	1879
70.32	1917
70.33	1921
70.34	1883
70.35	1825
70.36	1820
70.37	1821
70.38	1841
70.39	1876
70.4	1941
70.41	1937
70.42	1866
70.43	1857
70.44	1927
70.45	1939
70.46	1897
70.47	1932
70.48	1850
70.49	1858
70.5	1842
70.51	1794
70.52	1848
70.53	1845
70.54	1850
70.55	1918
70.56	1928
70.57	1863
70.58	1865
70.59	1854
70.6	1879
70.61	1869
70.62	1920
70.63	1963
70.64	1956
70.65	1958
70.66	1911
70.67	1910
70.68	1886
70.69	1953
70.7	2040
70.71	2019
70.72	1970
70.73	1925
70.74	1928
70.75	1878
70.76	1940
70.77	1923
70.78	1902
70.79	1920
70.8	1870
70.81	1874
70.82	1906
70.83	1921
70.84	1904
70.85	1910
70.86	1941
70.87	1937
70.88	1911
70.89	1903
70.9	1938
70.91	1928
70.92	1889
70.93	1880
70.94	1852
70.95	1895
70.96	1887
70.97	1935
70.98	1960
70.99	1941
71.0	1888
71.01	1907
71.02	1933
71.03	1894
71.04	1862
71.05	1875
71.06	1907
71.07	1912
71.08	1882
71.09	1870
71.1	1863
71.11	1898
71.12	1864
71.13	1852
71.14	1893
71.15	1882
71.16	1905
71.17	1879
71.18	1848
71.19	1841
71.2	1847
71.21	1828
71.22	1840
71.23	1871
71.24	1854
71.25	1854
71.26	1880
71.27	1837
71.28	1798
71.29	1820
71.3	1870
71.31	1815
71.32	1828
71.33	1865
71.34	1851
71.35	1799
71.36	1829
71.37	1840
71.38	1881
71.39	1784
71.4	1800
71.41	1844
71.42	1796
71.43	1875
71.44	1877
71.45	1887
71.46	1928
71.47	1853
71.48	1828
71.49	1890
71.5	1899
71.51	1907
71.52	1888
71.53	1920
71.54	1887
71.55	1878
71.56	1884
71.57	1897
71.58	1866
71.59	1837
71.6	1888
71.61	1892
71.62	1866
71.63	1880
71.64	1845
71.65	1884
71.66	1880
71.67	1812
71.68	1861
71.69	1907
71.7	1848
71.71	1849
71.72	1872
71.73	1874
71.74	1834
71.75	1877
71.76	1924
71.77	1887
71.78	1888
71.79	1847
71.8	1865
71.81	1839
71.82	1862
71.83	1924
71.84	1869
71.85	1824
71.86	1804
71.87	1832
71.88	1932
71.89	1933
71.9	1912
71.91	1837
71.92	1834
71.93	1840
71.94	1835
71.95	1852
71.96	1861
71.97	1883
71.98	1846
71.99	1884
72.0	1850
72.01	1809
72.02	1831
72.03	1861
72.04	1811
72.05	1814
72.06	1799
72.07	1844
72.08	1852
72.09	1886
72.1	1872
72.11	1897
72.12	1933
72.13	1909
72.14	1925
72.15	1917
72.16	1926
72.17	1907
72.18	1946
72.19	1974
72.2	1917
72.21	1935
72.22	1954
72.23	1966
72.24	1991
72.25	2043
72.26	1983
72.27	1997
72.28	2033
72.29	2053
72.3	2103
72.31	2086
72.32	2042
72.33	2050
72.34	2014
72.35	1996
72.36	2011
72.37	2040
72.38	2046
72.39	2017
72.4	2009
72.41	2080
72.42	2077
72.43	1990
72.44	2005
72.45	1997
72.46	1954
72.47	2001
72.48	1970
72.49	1994
72.5	1972
72.51	1991
72.52	2007
72.53	2015
72.54	2003
72.55	1962
72.56	1946
72.57	1962
72.58	1993
72.59	1955
72.6	1920
72.61	1900
72.62	1941
72.63	1982
72.64	1960
72.65	1945
72.66	1993
72.67	1969
72.68	1925
72.69	1884
72.7	1864
72.71	1875
72.72	1880
72.73	1898
72.74	1881
72.75	1840
72.76	1851
72.77	1854
72.78	1893
72.79	1885
72.8	1908
72.81	1901
72.82	1878
72.83	1891
72.84	1885
72.85	1810
72.86	1856
72.87	1836
72.88	1849
72.89	1867
72.9	1885
72.91	1872
72.92	1859
72.93	1852
72.94	1875
72.95	1905
72.96	1854
72.97	1839
72.98	1844
72.99	1837
73.0	1833
73.01	1839
73.02	1886
73.03	1857
73.04	1866
73.05	1892
73.06	1878
73.07	1860
73.08	1844
73.09	1824
73.1	1834
73.11	1813
73.12	1803
73.13	1842
73.14	1824
73.15	1839
73.16	1820
73.17	1811
73.18	1818
73.19	1841
73.2	1903
73.21	1890
73.22	1865
73.23	1867
73.24	1879
73.25	1806
73.26	1764
73.27	1835
73.28	1851
73.29	1822
73.3	1842
73.31	1902
73.32	1866
73.33	1874
73.34	1864
73.35	1846
73.36	1878
73.37	1865
73.38	1871
73.39	1841
73.4	1808
73.41	1816
73.42	1855
73.43	1843
73.44	1874
73.45	1836
73.46	1844
73.47	1900
73.48	1918
73.49	1870
73.5	1843
73.51	1869
73.52	1855
73.53	1853
73.54	1879
73.55	1855
73.56	1853
73.57	1900
73.58	1898
73.59	1885
73.6	1926
73.61	1924
73.62	1907
73.63	1889
73.64	1924
73.65	1909
73.66	1891
73.67	1957
73.68	1994
73.69	1943
73.7	1900
73.71	1883
73.72	1899
73.73	1899
73.74	1942
73.75	1941
73.76	1958
73.77	1972
73.78	1937
73.79	1969
73.8	2004
73.81	1995
73.82	2007
73.83	1990
73.84	1997
73.85	1997
73.86	2010
73.87	2064
73.88	2074
73.89	2073
73.9	2188
73.91	2161
73.92	2144
73.93	2085
73.94	2120
73.95	2047
73.96	2088
73.97	2174
73.98	2164
73.99	2119
74.0	2141
74.01	2146
74.02	2123
74.03	2113
74.04	2115
74.05	2125
74.06	2117
74.07	2085
74.08	2095
74.09	2056
74.1	2057
74.11	2047
74.12	2046
74.13	2111
74.14	2076
74.15	2018
74.16	2013
74.17	2030
74.18	2049
74.19	2051
74.2	2002
74.21	1967
74.22	1991
74.23	2055
74.24	2020
74.25	1996
74.26	1954
74.27	1965
74.28	1956
74.29	1951
74.3	1919
74.31	1867
74.32	1880
74.33	1922
74.34	1898
74.35	1913
74.36	1890
74.37	1873
74.38	1836
74.39	1844
74.4	1862
74.41	1868
74.42	1903
74.43	1908
74.44	1932
74.45	1902
74.46	1894
74.47	1923
74.48	1901
74.49	1861
74.5	1857
74.51	1851
74.52	1860
74.53	1794
74.54	1820
74.55	1871
74.56	1836
74.57	1842
74.58	1883
74.59	1833
74.6	1837
74.61	1855
74.62	1853
74.63	1859
74.64	1855
74.65	1862
74.66	1855
74.67	1861
74.68	1842
74.69	1800
74.7	1856
74.71	1805
74.72	1798
74.73	1868
74.74	1832
74.75	1865
74.76	1866
74.77	1864
74.78	1881
74.79	1872
74.8	1817
74.81	1777
74.82	1797
74.83	1874
74.84	1865
74.85	1828
74.86	1807
74.87	1810
74.88	1789
74.89	1757
74.9	1822
74.91	1868
74.92	1855
74.93	1840
74.94	1820
74.95	1832
74.96	1785
74.97	1797
74.98	1885
74.99	1926
75.0	1861
75.01	1844
75.02	1801
75.03	1804
75.04	1817
75.05	1833
75.06	1865
75.07	1871
75.08	1917
75.09	1884
75.1	1829
75.11	1847
75.12	1834
75.13	1826
75.14	1837
75.15	1832
75.16	1838
75.17	1864
75.18	1842
75.19	1848
75.2	1828
75.21	1857
75.22	1835
75.23	1862
75.24	1844
75.25	1792
75.26	1830
75.27	1843
75.28	1851
75.29	1862
75.3	1825
75.31	1865
75.32	1856
75.33	1816
75.34	1897
75.35	1941
75.36	1885
75.37	1863
75.38	1840
75.39	1886
75.4	1914
75.41	1871
75.42	1867
75.43	1867
75.44	1886
75.45	1917
75.46	1917
75.47	1868
75.48	1914
75.49	1927
75.5	1939
75.51	1933
75.52	1932
75.53	1950
75.54	1925
75.55	1906
75.56	1920
75.57	1932
75.58	2004
75.59	2000
75.6	1945
75.61	1918
75.62	1945
75.63	1961
75.64	1936
75.65	1893
75.66	1876
75.67	1911
75.68	1935
75.69	1890
75.7	1868
75.71	1896
75.72	1886
75.73	1914
75.74	1927
75.75	1920
75.76	1860
75.77	1829
75.78	1896
75.79	1840
75.8	1831
75.81	1899
75.82	1855
75.83	1855
75.84	1885
75.85	1878
75.86	1837
75.87	1840
75.88	1832
75.89	1817
75.9	1883
75.91	1909
75.92	1905
75.93	1875
75.94	1878
75.95	1867
75.96	1858
75.97	1828
75.98	1808
75.99	1828
76.0	1836
76.01	1793
76.02	1833
76.03	1842
76.04	1794
76.05	1814
76.06	1771
76.07	1794
76.08	1791
76.09	1791
76.1	1843
76.11	1830
76.12	1804
76.13	1785
76.14	1798
76.15	1812
76.16	1828
76.17	1799
76.18	1766
76.19	1767
76.2	1822
76.21	1837
76.22	1874
76.23	1839
76.24	1830
76.25	1817
76.26	1787
76.27	1876
76.28	1815
76.29	1777
76.3	1783
76.31	1770
76.32	1819
76.33	1870
76.34	1844
76.35	1837
76.36	1854
76.37	1843
76.38	1834
76.39	1838
76.4	1771
76.41	1794
76.42	1846
76.43	1809
76.44	1815
76.45	1793
76.46	1785
76.47	1821
76.48	1841
76.49	1854
76.5	1856
76.51	1827
76.52	1813
76.53	1818
76.54	1790
76.55	1791
76.56	1797
76.57	1780
76.58	1761
76.59	1765
76.6	1714
76.61	1743
76.62	1793
76.63	1794
76.64	1813
76.65	1812
76.66	1818
76.67	1756
76.68	1797
76.69	1818
76.7	1798
76.71	1813
76.72	1836
76.73	1807
76.74	1747
76.75	1776
76.76	1839
76.77	1812
76.78	1760
76.79	1768
76.8	1811
76.81	1798
76.82	1793
76.83	1823
76.84	1859
76.85	1803
76.86	1764
76.87	1774
76.88	1825
76.89	1791
76.9	1784
76.91	1790
76.92	1763
76.93	1800
76.94	1727
76.95	1749
76.96	1770
76.97	1770
76.98	1753
76.99	1806
77.0	1792
77.01	1789
77.02	1808
77.03	1803
77.04	1816
77.05	1842
77.06	1790
77.07	1750
77.08	1775
77.09	1757
77.1	1772
77.11	1751
77.12	1694
77.13	1728
77.14	1768
77.15	1774
77.16	1808
77.17	1852
77.18	1831
77.19	1809
77.2	1837
77.21	1825
77.22	1786
77.23	1791
77.24	1783
77.25	1779
77.26	1828
77.27	1811
77.28	1795
77.29	1776
77.3	1797
77.31	1815
77.32	1805
77.33	1823
77.34	1757
77.35	1713
77.36	1756
77.37	1823
77.38	1794
77.39	1822
77.4	1818
77.41	1807
77.42	1808
77.43	1765
77.44	1751
77.45	1808
77.46	1754
77.47	1713
77.48	1745
77.49	1805
77.5	1774
77.51	1779
77.52	1847
77.53	1823
77.54	1814
77.55	1770
77.56	1819
77.57	1863
77.58	1794
77.59	1855
77.6	1878
77.61	1823
77.62	1743
77.63	1732
77.64	1801
77.65	1765
77.66	1761
77.67	1781
77.68	1802
77.69	1778
77.7	1737
77.71	1784
77.72	1775
77.73	1819
77.74	1858
77.75	1830
77.76	1795
77.77	1767
77.78	1770
77.79	1785
77.8	1746
77.81	1749
77.82	1810
77.83	1799
77.84	1819
77.85	1825
77.86	1803
77.87	1774
77.88	1817
77.89	1836
77.9	1797
77.91	1774
77.92	1757
77.93	1807
77.94	1855
77.95	1798
77.96	1787
77.97	1791
77.98	1777
77.99	1775
78.0	1804
78.01	1811
78.02	1781
78.03	1801
78.04	1844
78.05	1799
78.06	1749
78.07	1750
78.08	1817
78.09	1781
78.1	1743
78.11	1748
78.12	1771
78.13	1789
78.14	1856
78.15	1827
78.16	1799
78.17	1748
78.18	1778
78.19	1777
78.2	1793
78.21	1758
78.22	1769
78.23	1800
78.24	1791
78.25	1774
78.26	1801
78.27	1795
78.28	1773
78.29	1777
78.3	1807
78.31	1809
78.32	1821
78.33	1745
78.34	1758
78.35	1788
78.36	1774
78.37	1811
78.38	1756
78.39	1747
78.4	1756
78.41	1770
78.42	1773
78.43	1800
78.44	1820
78.45	1833
78.46	1822
78.47	1782
78.48	1773
78.49	1779
78.5	1770
78.51	1754
78.52	1746
78.53	1813
78.54	1777
78.55	1752
78.56	1763
78.57	1794
78.58	1772
78.59	1759
78.6	1774
78.61	1740
78.62	1770
78.63	1803
78.64	1757
78.65	1785
78.66	1811
78.67	1839
78.68	1837
78.69	1775
78.7	1782
78.71	1806
78.72	1791
78.73	1742
78.74	1738
78.75	1792
78.76	1766
78.77	1747
78.78	1761
78.79	1761
78.8	1740
78.81	1788
78.82	1799
78.83	1764
78.84	1763
78.85	1779
78.86	1782
78.87	1751
78.88	1753
78.89	1798
78.9	1818
78.91	1789
78.92	1774
78.93	1725
78.94	1760
78.95	1772
78.96	1768
78.97	1789
78.98	1754
78.99	1749
79.0	1837
79.01	1759
79.02	1797
79.03	1798
79.04	1768
79.05	1725
79.06	1764
79.07	1806
79.08	1788
79.09	1792
79.1	1809
79.11	1805
79.12	1816
79.13	1783
79.14	1738
79.15	1750
79.16	1820
79.17	1774
79.18	1740
79.19	1734
79.2	1804
79.21	1807
79.22	1801
79.23	1788
79.24	1797
79.25	1783
79.26	1796
79.27	1800
79.28	1813
79.29	1779
79.3	1763
79.31	1776
79.32	1785
79.33	1794
79.34	1843
79.35	1853
79.36	1758
79.37	1700
79.38	1737
79.39	1726
79.4	1811
79.41	1794
79.42	1755
79.43	1780
79.44	1792
79.45	1765
79.46	1740
79.47	1762
79.48	1794
79.49	1779
79.5	1793
79.51	1802
79.52	1764
79.53	1736
79.54	1757
79.55	1775
79.56	1786
79.57	1826
79.58	1825
79.59	1807
79.6	1820
79.61	1774
79.62	1766
79.63	1748
79.64	1807
79.65	1808
79.66	1794
79.67	1847
79.68	1822
79.69	1740
79.7	1771
79.71	1803
79.72	1797
79.73	1771
79.74	1787
79.75	1764
79.76	1772
79.77	1799
79.78	1768
79.79	1782
79.8	1783
79.81	1816
79.82	1878
79.83	1804
79.84	1818
79.85	1797
79.86	1744
79.87	1838
79.88	1875
79.89	1831
79.9	1829
79.91	1842
79.92	1828
79.93	1803
79.94	1828
79.95	1845
79.96	1836
79.97	1839
79.98	1832
79.99	1799
80.0	1825
80.01	1787
80.02	1796
80.03	1859
80.04	1857
80.05	1844
80.06	1838
80.07	1814
80.08	1860
80.09	1881
80.1	1847
80.11	1820
80.12	1820
80.13	1865
80.14	1884
80.15	1880
80.16	1859
80.17	1843
80.18	1881
80.19	1893
80.2	1869
80.21	1878
80.22	1893
80.23	1906
80.24	1927
80.25	1879
80.26	1918
80.27	1920
80.28	1882
80.29	1865
80.3	1948
80.31	1991
80.32	1980
80.33	1852
80.34	1891
80.35	1935
80.36	1898
80.37	1864
80.38	1858
80.39	1896
80.4	1896
80.41	1858
80.42	1846
80.43	1863
80.44	1901
80.45	1850
80.46	1843
80.47	1854
80.48	1822
80.49	1884
80.5	1853
80.51	1879
80.52	1837
80.53	1820
80.54	1809
80.55	1908
80.56	1855
80.57	1852
80.58	1856
80.59	1857
80.6	1826
80.61	1793
80.62	1786
80.63	1795
80.64	1830
80.65	1778
80.66	1758
80.67	1767
80.68	1782
80.69	1745
80.7	1763
80.71	1802
80.72	1809
80.73	1813
80.74	1842
80.75	1828
80.76	1795
80.77	1779
80.78	1774
80.79	1824
80.8	1815
80.81	1795
80.82	1781
80.83	1794
80.84	1800
80.85	1804
80.86	1794
80.87	1802
80.88	1783
80.89	1802
80.9	1822
80.91	1786
80.92	1734
80.93	1703
80.94	1776
80.95	1758
80.96	1755
80.97	1754
80.98	1807
80.99	1811
81.0	1790
81.01	1812
81.02	1797
81.03	1812
81.04	1832
81.05	1760
81.06	1717
81.07	1814
81.08	1793
81.09	1727
81.1	1755
81.11	1792
81.12	1795
81.13	1782
81.14	1811
81.15	1828
81.16	1808
81.17	1811
81.18	1856
81.19	1805
81.2	1792
81.21	1766
81.22	1767
81.23	1787
81.24	1807
81.25	1783
81.26	1776
81.27	1752
81.28	1757
81.29	1749
81.3	1749
81.31	1737
81.32	1779
81.33	1817
81.34	1847
81.35	1774
81.36	1829
81.37	1824
81.38	1832
81.39	1855
81.4	1848
81.41	1817
81.42	1776
81.43	1792
81.44	1785
81.45	1770
81.46	1820
81.47	1830
81.48	1785
81.49	1794
81.5	1798
81.51	1830
81.52	1857
81.53	1888
81.54	1865
81.55	1829
81.56	1874
81.57	1877
81.58	1904
81.59	1927
81.6	1880
81.61	1859
81.62	1879
81.63	1922
81.64	1917
81.65	1919
81.66	1934
81.67	1932
81.68	1910
81.69	1947
81.7	1961
81.71	1987
81.72	2048
81.73	2055
81.74	2044
81.75	2003
81.76	2053
81.77	2079
81.78	2078
81.79	2082
81.8	2073
81.81	2058
81.82	2067
81.83	2092
81.84	2032
81.85	1988
81.86	1987
81.87	2009
81.88	2036
81.89	1998
81.9	2024
81.91	2057
81.92	2008
81.93	1952
81.94	1973
81.95	1959
81.96	1968
81.97	1972
81.98	1955
81.99	1971
82.0	1968
82.01	1974
82.02	1929
82.03	1948
82.04	1984
82.05	1932
82.06	1920
82.07	1926
82.08	1953
82.09	1930
82.1	1928
82.11	1914
82.12	1909
82.13	1867
82.14	1873
82.15	1878
82.16	1873
82.17	1886
82.18	1914
82.19	1894
82.2	1901
82.21	1840
82.22	1877
82.23	1891
82.24	1848
82.25	1817
82.26	1811
82.27	1819
82.28	1795
82.29	1794
82.3	1813
82.31	1789
82.32	1785
82.33	1785
82.34	1773
82.35	1761
82.36	1789
82.37	1840
82.38	1789
82.39	1780
82.4	1776
82.41	1822
82.42	1806
82.43	1730
82.44	1740
82.45	1816
82.46	1834
82.47	1803
82.48	1792
82.49	1815
82.5	1762
82.51	1754
82.52	1736
82.53	1754
82.54	1770
82.55	1782
82.56	1767
82.57	1787
82.58	1766
82.59	1758
82.6	1788
82.61	1851
82.62	1844
82.63	1798
82.64	1778
82.65	1793
82.66	1846
82.67	1803
82.68	1769
82.69	1785
82.7	1759
82.71	1783
82.72	1797
82.73	1758
82.74	1758
82.75	1758
82.76	1766
82.77	1835
82.78	1808
82.79	1741
82.8	1762
82.81	1774
82.82	1795
82.83	1832
82.84	1771
82.85	1789
82.86	1817
82.87	1782
82.88	1795
82.89	1736
82.9	1769
82.91	1837
82.92	1800
82.93	1776
82.94	1828
82.95	1810
82.96	1773
82.97	1785
82.98	1847
82.99	1869
83.0	1876
83.01	1881
83.02	1825
83.03	1813
83.04	1863
83.05	1798
83.06	1849
83.07	1853
83.08	1843
83.09	1815
83.1	1798
83.11	1846
83.12	1864
83.13	1898
83.14	1915
83.15	1922
83.16	1925
83.17	1907
83.18	1902
83.19	1885
83.2	1933
83.21	1967
83.22	1937
83.23	1922
83.24	1965
83.25	1964
83.26	2000
83.27	2010
83.28	2017
83.29	2018
83.3	2041
83.31	2039
83.32	2059
83.33	2050
83.34	2044
83.35	2057
83.36	2069
83.37	2090
83.38	2073
83.39	2052
83.4	2044
83.41	2037
83.42	2045
83.43	2028
83.44	2059
83.45	2004
83.46	1996
83.47	1965
83.48	1979
83.49	2019
83.5	2083
83.51	1977
83.52	1945
83.53	1954
83.54	1947
83.55	1953
83.56	1979
83.57	2029
83.58	2023
83.59	2039
83.6	1987
83.61	1947
83.62	1957
83.63	1963
83.64	1918
83.65	1943
83.66	1961
83.67	1937
83.68	1909
83.69	1868
83.7	1858
83.71	1911
83.72	1896
83.73	1857
83.74	1869
83.75	1878
83.76	1856
83.77	1844
83.78	1833
83.79	1840
83.8	1818
83.81	1793
83.82	1834
83.83	1809
83.84	1814
83.85	1793
83.86	1788
83.87	1736
83.88	1759
83.89	1775
83.9	1794
83.91	1774
83.92	1797
83.93	1810
83.94	1802
83.95	1785
83.96	1768
83.97	1725
83.98	1724
83.99	1775
84.0	1801
84.01	1785
84.02	1784
84.03	1739
84.04	1742
84.05	1804
84.06	1788
84.07	1775
84.08	1759
84.09	1753
84.1	1751
84.11	1765
84.12	1777
84.13	1738
84.14	1791
84.15	1825
84.16	1758
84.17	1752
84.18	1778
84.19	1774
84.2	1789
84.21	1749
84.22	1733
84.23	1767
84.24	1777
84.25	1724
84.26	1755
84.27	1769
84.28	1796
84.29	1747
84.3	1764
84.31	1759
84.32	1726
84.33	1706
84.34	1737
84.35	1763
84.36	1793
84.37	1832
84.38	1814
84.39	1788
84.4	1763
84.41	1772
84.42	1763
84.43	1736
84.44	1718
84.45	1748
84.46	1796
84.47	1795
84.48	1740
84.49	1751
84.5	1753
84.51	1757
84.52	1752
84.53	1735
84.54	1771
84.55	1752
84.56	1775
84.57	1773
84.58	1766
84.59	1777
84.6	1778
84.61	1818
84.62	1840
84.63	1823
84.64	1813
84.65	1795
84.66	1789
84.67	1821
84.68	1846
84.69	1835
84.7	1868
84.71	1878
84.72	1899
84.73	1893
84.74	1895
84.75	1889
84.76	1865
84.77	1845
84.78	1871
84.79	1888
84.8	1868
84.81	1874
84.82	1908
84.83	1888
84.84	1847
84.85	1900
84.86	1898
84.87	1922
84.88	1964
84.89	1974
84.9	1956
84.91	1936
84.92	1893
84.93	1933
84.94	1947
84.95	1950
84.96	1949
84.97	1940
84.98	1972
84.99	1963
85.0	1981
85.01	1924
85.02	1914
85.03	1933
85.04	1897
85.05	1897
85.06	1884
85.07	1878
85.08	1899
85.09	1869
85.1	1845
85.11	1914
85.12	1890
85.13	1891
85.14	1914
85.15	1905
85.16	1905
85.17	1852
85.18	1890
85.19	1877
85.2	1844
85.21	1835
85.22	1854
85.23	1849
85.24	1833
85.25	1853
85.26	1812
85.27	1775
85.28	1837
85.29	1813
85.3	1773
85.31	1732
85.32	1790
85.33	1800
85.34	1784
85.35	1758
85.36	1807
85.37	1815
85.38	1780
85.39	1792
85.4	1763
85.41	1767
85.42	1753
85.43	1756
85.44	1771
85.45	1780
85.46	1748
85.47	1748
85.48	1804
85.49	1792
85.5	1753
85.51	1739
85.52	1725
85.53	1761
85.54	1779
85.55	1747
85.56	1744
85.57	1743
85.58	1748
85.59	1779
85.6	1793
85.61	1772
85.62	1748
85.63	1736
85.64	1749
85.65	1766
85.66	1770
85.67	1728
85.68	1741
85.69	1779
85.7	1809
85.71	1771
85.72	1750
85.73	1800
85.74	1781
85.75	1792
85.76	1774
85.77	1740
85.78	1744
85.79	1769
85.8	1792
85.81	1742
85.82	1742
85.83	1733
85.84	1715
85.85	1766
85.86	1780
85.87	1742
85.88	1732
85.89	1773
85.9	1785
85.91	1745
85.92	1728
85.93	1719
85.94	1733
85.95	1781
85.96	1814
85.97	1795
85.98	1769
85.99	1755
86.0	1753
86.01	1816
86.02	1820
86.03	1781
86.04	1742
86.05	1750
86.06	1784
86.07	1807
86.08	1796
86.09	1778
86.1	1779
86.11	1770
86.12	1747
86.13	1777
86.14	1805
86.15	1831
86.16	1803
86.17	1777
86.18	1820
86.19	1817
86.2	1806
86.21	1810
86.22	1796
86.23	1808
86.24	1805
86.25	1836
86.26	1778
86.27	1791
86.28	1820
86.29	1840
86.3	1860
86.31	1841
86.32	1834
86.33	1890
86.34	1870
86.35	1829
86.36	1911
86.37	1929
86.38	1908
86.39	1904
86.4	1867
86.41	1887
86.42	1920
86.43	1931
86.44	1898
86.45	1890
86.46	1904
86.47	1905
86.48	1933
86.49	1928
86.5	1935
86.51	1922
86.52	1885
86.53	1876
86.54	1902
86.55	1934
86.56	1917
86.57	1876
86.58	1888
86.59	1876
86.6	1876
86.61	1905
86.62	1898
86.63	1872
86.64	1902
86.65	1868
86.66	1890
86.67	1894
86.68	1877
86.69	1876
86.7	1859
86.71	1840
86.72	1871
86.73	1864
86.74	1812
86.75	1827
86.76	1871
86.77	1856
86.78	1834
86.79	1820
86.8	1795
86.81	1788
86.82	1791
86.83	1799
86.84	1825
86.85	1809
86.86	1776
86.87	1767
86.88	1770
86.89	1797
86.9	1784
86.91	1769
86.92	1802
86.93	1786
86.94	1799
86.95	1803
86.96	1778
86.97	1793
86.98	1783
86.99	1778
87.0	1815
87.01	1817
87.02	1811
87.03	1836
87.04	1805
87.05	1734
87.06	1774
87.07	1767
87.08	1760
87.09	1768
87.1	1755
87.11	1753
87.12	1759
87.13	1727
87.14	1679
87.15	1680
87.16	1718
87.17	1741
87.18	1778
87.19	1774
87.2	1775
87.21	1760
87.22	1710
87.23	1724
87.24	1728
87.25	1711
87.26	1773
87.27	1837
87.28	1816
87.29	1763
87.3	1756
87.31	1758
87.32	1774
87.33	1771
87.34	1753
87.35	1749
87.36	1745
87.37	1756
87.38	1724
87.39	1720
87.4	1725
87.41	1746
87.42	1773
87.43	1757
87.44	1707
87.45	1724
87.46	1748
87.47	1753
87.48	1777
87.49	1798
87.5	1776
87.51	1754
87.52	1759
87.53	1743
87.54	1741
87.55	1727
87.56	1724
87.57	1744
87.58	1760
87.59	1745
87.6	1720
87.61	1734
87.62	1739
87.63	1763
87.64	1785
87.65	1759
87.66	1759
87.67	1740
87.68	1724
87.69	1747
87.7	1790
87.71	1810
87.72	1788
87.73	1743
87.74	1747
87.75	1728
87.76	1774
87.77	1833
87.78	1799
87.79	1761
87.8	1778
87.81	1818
87.82	1843
87.83	1845
87.84	1844
87.85	1795
87.86	1761
87.87	1778
87.88	1794
87.89	1810
87.9	1800
87.91	1813
87.92	1826
87.93	1840
87.94	1856
87.95	1825
87.96	1782
87.97	1794
87.98	1795
87.99	1804
88.0	1840
88.01	1836
88.02	1816
88.03	1818
88.04	1813
88.05	1811
88.06	1825
88.07	1840
88.08	1838
88.09	1842
88.1	1842
88.11	1856
88.12	1789
88.13	1775
88.14	1769
88.15	1768
88.16	1774
88.17	1799
88.18	1846
88.19	1845
88.2	1809
88.21	1807
88.22	1813
88.23	1804
88.24	1808
88.25	1816
88.26	1802
88.27	1761
88.28	1779
88.29	1816
88.3	1812
88.31	1823
88.32	1818
88.33	1779
88.34	1756
88.35	1778
88.36	1792
88.37	1812
88.38	1827
88.39	1796
88.4	1767
88.41	1730
88.42	1736
88.43	1776
88.44	1766
88.45	1719
88.46	1706
88.47	1736
88.48	1764
88.49	1743
88.5	1755
88.51	1771
88.52	1748
88.53	1732
88.54	1761
88.55	1771
88.56	1766
88.57	1780
88.58	1760
88.59	1732
88.6	1733
88.61	1719
88.62	1719
88.63	1735
88.64	1715
88.65	1723
88.66	1743
88.67	1702
88.68	1693
88.69	1739
88.7	1750
88.71	1742
88.72	1739
88.73	1725
88.74	1678
88.75	1690
88.76	1688
88.77	1715
88.78	1765
88.79	1783
88.8	1761
88.81	1744
88.82	1769
88.83	1784
88.84	1742
88.85	1745
88.86	1759
88.87	1760
88.88	1792
88.89	1781
88.9	1780
88.91	1786
88.92	1775
88.93	1744
88.94	1755
88.95	1763
88.96	1765
88.97	1737
88.98	1732
88.99	1723
89.0	1738
89.01	1757
89.02	1733
89.03	1737
89.04	1738
89.05	1752
89.06	1784
89.07	1767
89.08	1750
89.09	1755
89.1	1755
89.11	1773
89.12	1757
89.13	1762
89.14	1738
89.15	1745
89.16	1776
89.17	1784
89.18	1787
89.19	1758
89.2	1772
89.21	1812
89.22	1819
89.23	1822
89.24	1794
89.25	1769
89.26	1777
89.27	1790
89.28	1768
89.29	1736
89.3	1777
89.31	1819
89.32	1795
89.33	1761
89.34	1758
89.35	1805
89.36	1837
89.37	1831
89.38	1829
89.39	1815
89.4	1848
89.41	1859
89.42	1858
89.43	1866
89.44	1859
89.45	1850
89.46	1842
89.47	1843
89.48	1884
89.49	1895
89.5	1837
89.51	1826
89.52	1846
89.53	1825
89.54	1796
89.55	1845
89.56	1901
89.57	1894
89.58	1894
89.59	1845
89.6	1844
89.61	1901
89.62	1896
89.63	1882
89.64	1884
89.65	1865
89.66	1847
89.67	1853
89.68	1845
89.69	1820
89.7	1845
89.71	1877
89.72	1888
89.73	1873
89.74	1845
89.75	1826
89.76	1802
89.77	1789
89.78	1797
89.79	1785
89.8	1778
89.81	1826
89.82	1849
89.83	1826
89.84	1818
89.85	1784
89.86	1765
89.87	1787
89.88	1803
89.89	1806
89.9	1830
89.91	1810
89.92	1769
89.93	1786
89.94	1812
89.95	1784
89.96	1770
89.97	1791
89.98	1782
89.99	1764
90.0	1753
90.01	1765
90.02	1769
90.03	1777
90.04	1768
90.05	1751
90.06	1729
90.07	1749
90.08	1772
90.09	1760
90.1	1764
90.11	1812
90.12	1811
90.13	1770
90.14	1761
90.15	1766
90.16	1808
90.17	1826
90.18	1796
90.19	1770
90.2	1744
90.21	1743
90.22	1774
90.23	1789
90.24	1762
90.25	1725
90.26	1736
90.27	1791
90.28	1805
90.29	1772
90.3	1752
90.31	1766
90.32	1796
90.33	1786
90.34	1794
90.35	1796
90.36	1770
90.37	1795
90.38	1809
90.39	1782
90.4	1769
90.41	1767
90.42	1776
90.43	1786
90.44	1737
90.45	1740
90.46	1761
90.47	1779
90.48	1824
90.49	1823
90.5	1771
90.51	1769
90.52	1815
90.53	1835
90.54	1844
90.55	1835
90.56	1797
90.57	1801
90.58	1864
90.59	1898
90.6	1857
90.61	1803
90.62	1791
90.63	1799
90.64	1792
90.65	1803
90.66	1862
90.67	1895
90.68	1850
90.69	1848
90.7	1878
90.71	1879
90.72	1886
90.73	1891
90.74	1888
90.75	1879
90.76	1884
90.77	1894
90.78	1861
90.79	1857
90.8	1898
90.81	1918
90.82	1913
90.83	1946
90.84	1982
90.85	1975
90.86	1989
90.87	1998
90.88	1967
90.89	1998
90.9	2036
90.91	1998
90.92	1987
90.93	2021
90.94	2082
90.95	2109
90.96	2083
90.97	2078
90.98	2083
90.99	2080
91.0	2065
91.01	2096
91.02	2133
91.03	2092
91.04	2061
91.05	2037
91.06	1994
91.07	2018
91.08	2086
91.09	2115
91.1	2095
91.11	2076
91.12	2062
91.13	2054
91.14	2070
91.15	2112
91.16	2113
91.17	2065
91.18	2057
91.19	2106
91.2	2107
91.21	2076
91.22	2051
91.23	2027
91.24	2046
91.25	2059
91.26	2035
91.27	2032
91.28	2024
91.29	1987
91.3	1986
91.31	2004
91.32	2027
91.33	2039
91.34	2008
91.35	1972
91.36	1947
91.37	1945
91.38	1967
91.39	1986
91.4	1996
91.41	1983
91.42	1988
91.43	1985
91.44	1957
91.45	1925
91.46	1876
91.47	1877
91.48	1860
91.49	1832
91.5	1855
91.51	1849
91.52	1856
91.53	1841
91.54	1824
91.55	1824
91.56	1809
91.57	1803
91.58	1802
91.59	1829
91.6	1859
91.61	1845
91.62	1805
91.63	1817
91.64	1832
91.65	1855
91.66	1856
91.67	1815
91.68	1802
91.69	1800
91.7	1793
91.71	1786
91.72	1785
91.73	1787
91.74	1795
91.75	1801
91.76	1786
91.77	1785
91.78	1767
91.79	1742
91.8	1753
91.81	1762
91.82	1765
91.83	1771
91.84	1796
91.85	1815
91.86	1800
91.87	1780
91.88	1786
91.89	1784
91.9	1802
91.91	1807
91.92	1738
91.93	1706
91.94	1747
91.95	1771
91.96	1767
91.97	1753
91.98	1740
91.99	1740
92.0	1734
92.01	1736
92.02	1753
92.03	1739
92.04	1755
92.05	1789
92.06	1776
92.07	1751
92.08	1727
92.09	1709
92.1	1724
92.11	1730
92.12	1742
92.13	1756
92.14	1707
92.15	1694
92.16	1715
92.17	1747
92.18	1782
92.19	1756
92.2	1730
92.21	1751
92.22	1770
92.23	1762
92.24	1751
92.25	1738
92.26	1727
92.27	1735
92.28	1762
92.29	1771
92.3	1774
92.31	1780
92.32	1781
92.33	1777
92.34	1746
92.35	1746
92.36	1761
92.37	1738
92.38	1732
92.39	1746
92.4	1746
92.41	1726
92.42	1730
92.43	1738
92.44	1774
92.45	1786
92.46	1743
92.47	1732
92.48	1756
92.49	1760
92.5	1743
92.51	1719
92.52	1717
92.53	1752
92.54	1771
92.55	1775
92.56	1794
92.57	1777
92.58	1742
92.59	1731
92.6	1712
92.61	1705
92.62	1718
92.63	1770
92.64	1778
92.65	1735
92.66	1733
92.67	1756
92.68	1793
92.69	1810
92.7	1798
92.71	1788
92.72	1785
92.73	1781
92.74	1790
92.75	1761
92.76	1700
92.77	1682
92.78	1726
92.79	1763
92.8	1744
92.81	1714
92.82	1724
92.83	1741
92.84	1755
92.85	1739
92.86	1725
92.87	1737
92.88	1762
92.89	1777
92.9	1769
92.91	1733
92.92	1738
92.93	1749
92.94	1741
92.95	1734
92.96	1712
92.97	1699
92.98	1733
92.99	1754
93.0	1762
93.01	1738
93.02	1708
93.03	1731
93.04	1738
93.05	1738
93.06	1729
93.07	1753
93.08	1769
93.09	1722
93.1	1683
93.11	1703
93.12	1689
93.13	1675
93.14	1703
93.15	1716
93.16	1769
93.17	1805
93.18	1755
93.19	1697
93.2	1685
93.21	1708
93.22	1740
93.23	1747
93.24	1719
93.25	1718
93.26	1732
93.27	1773
93.28	1794
93.29	1755
93.3	1754
93.31	1733
93.32	1679
93.33	1686
93.34	1736
93.35	1750
93.36	1746
93.37	1743
93.38	1757
93.39	1727
93.4	1743
93.41	1776
93.42	1755
93.43	1727
93.44	1730
93.45	1770
93.46	1747
93.47	1745
93.48	1752
93.49	1759
93.5	1771
93.51	1791
93.52	1789
93.53	1806
93.54	1801
93.55	1805
93.56	1800
93.57	1773
93.58	1789
93.59	1796
93.6	1804
93.61	1769
93.62	1733
93.63	1756
93.64	1755
93.65	1744
93.66	1737
93.67	1765
93.68	1784
93.69	1779
93.7	1792
93.71	1807
93.72	1815
93.73	1810
93.74	1827
93.75	1836
93.76	1772
93.77	1773
93.78	1805
93.79	1794
93.8	1810
93.81	1821
93.82	1849
93.83	1886
93.84	1850
93.85	1806
93.86	1837
93.87	1881
93.88	1908
93.89	1926
93.9	1884
93.91	1898
93.92	1899
93.93	1858
93.94	1878
93.95	1891
93.96	1883
93.97	1906
93.98	1939
93.99	1953
94.0	1939
94.01	1938
94.02	2015
94.03	2039
94.04	1987
94.05	1957
94.06	2024
94.07	2054
94.08	2063
94.09	2055
94.1	2049
94.11	2023
94.12	1986
94.13	1993
94.14	1975
94.15	1933
94.16	1968
94.17	1999
94.18	2000
94.19	1995
94.2	1982
94.21	1947
94.22	1933
94.23	1970
94.24	1959
94.25	1978
94.26	1976
94.27	1970
94.28	1995
94.29	1995
94.3	1981
94.31	1971
94.32	1968
94.33	1976
94.34	1980
94.35	1944
94.36	1910
94.37	1933
94.38	1944
94.39	1897
94.4	1852
94.41	1922
94.42	1980
94.43	1960
94.44	1932
94.45	1922
94.46	1876
94.47	1859
94.48	1888
94.49	1909
94.5	1868
94.51	1864
94.52	1920
94.53	1887
94.54	1874
94.55	1857
94.56	1849
94.57	1870
94.58	1867
94.59	1861
94.6	1866
94.61	1852
94.62	1827
94.63	1798
94.64	1818
94.65	1867
94.66	1859
94.67	1851
94.68	1779
94.69	1763
94.7	1791
94.71	1759
94.72	1759
94.73	1797
94.74	1800
94.75	1735
94.76	1738
94.77	1772
94.78	1791
94.79	1785
94.8	1777
94.81	1775
94.82	1777
94.83	1804
94.84	1805
94.85	1787
94.86	1793
94.87	1796
94.88	1784
94.89	1771
94.9	1783
94.91	1808
94.92	1747
94.93	1695
94.94	1735
94.95	1767
94.96	1765
94.97	1766
94.98	1732
94.99	1721
95.0	1704
95.01	1732
95.02	1748
95.03	1727
95.04	1740
95.05	1782
95.06	1757
95.07	1750
95.08	1768
95.09	1770
95.1	1759
95.11	1756
95.12	1769
95.13	1734
95.14	1734
95.15	1734
95.16	1800
95.17	1802
95.18	1782
95.19	1746
95.2	1723
95.21	1734
95.22	1741
95.23	1780
95.24	1805
95.25	1771
95.26	1749
95.27	1750
95.28	1771
95.29	1760
95.3	1737
95.31	1738
95.32	1720
95.33	1745
95.34	1710
95.35	1733
95.36	1751
95.37	1785
95.38	1756
95.39	1733
95.4	1769
95.41	1755
95.42	1769
95.43	1783
95.44	1779
95.45	1808
95.46	1777
95.47	1731
95.48	1754
95.49	1781
95.5	1794
95.51	1794
95.52	1768
95.53	1718
95.54	1770
95.55	1799
95.56	1814
95.57	1819
95.58	1762
95.59	1745
95.6	1790
95.61	1822
95.62	1780
95.63	1751
95.64	1753
95.65	1755
95.66	1762
95.67	1781
95.68	1772
95.69	1770
95.7	1781
95.71	1782
95.72	1776
95.73	1752
95.74	1727
95.75	1766
95.76	1759
95.77	1731
95.78	1766
95.79	1792
95.8	1752
95.81	1706
95.82	1763
95.83	1787
95.84	1730
95.85	1744
95.86	1742
95.87	1742
95.88	1811
95.89	1770
95.9	1776
95.91	1806
95.92	1806
95.93	1794
95.94	1782
95.95	1754
95.96	1736
95.97	1721
95.98	1765
95.99	1818
96.0	1815
96.01	1793
96.02	1798
96.03	1797
96.04	1776
96.05	1760
96.06	1756
96.07	1789
96.08	1797
96.09	1758
96.1	1756
96.11	1752
96.12	1781
96.13	1770
96.14	1740
96.15	1737
96.16	1777
96.17	1753
96.18	1772
96.19	1793
96.2	1773
96.21	1795
96.22	1807
96.23	1776
96.24	1749
96.25	1788
96.26	1774
96.27	1685
96.28	1635
96.29	1733
96.3	1746
96.31	1706
96.32	1751
96.33	1822
96.34	1781
96.35	1728
96.36	1705
96.37	1700
96.38	1695
96.39	1741
96.4	1772
96.41	1804
96.42	1804
96.43	1760
96.44	1730
96.45	1682
96.46	1719
96.47	1722
96.48	1698
96.49	1696
96.5	1724
96.51	1732
96.52	1746
96.53	1769
96.54	1757
96.55	1747
96.56	1733
96.57	1750
96.58	1742
96.59	1747
96.6	1739
96.61	1786
96.62	1782
96.63	1705
96.64	1707
96.65	1712
96.66	1743
96.67	1762
96.68	1743
96.69	1758
96.7	1748
96.71	1759
96.72	1774
96.73	1738
96.74	1695
96.75	1690
96.76	1719
96.77	1718
96.78	1754
96.79	1795
96.8	1760
96.81	1773
96.82	1797
96.83	1752
96.84	1781
96.85	1795
96.86	1776
96.87	1779
96.88	1798
96.89	1724
96.9	1712
96.91	1759
96.92	1764
96.93	1754
96.94	1729
96.95	1762
96.96	1791
96.97	1786
96.98	1745
96.99	1752
97.0	1773
97.01	1754
97.02	1757
97.03	1759
97.04	1807
97.05	1812
97.06	1768
97.07	1749
97.08	1800
97.09	1787
97.1	1769
97.11	1755
97.12	1781
97.13	1768
97.14	1767
97.15	1817
97.16	1807
97.17	1818
97.18	1807
97.19	1794
97.2	1774
97.21	1796
97.22	1810
97.23	1786
97.24	1758
97.25	1761
97.26	1766
97.27	1799
97.28	1809
97.29	1811
97.3	1796
97.31	1799
97.32	1762
97.33	1718
97.34	1723
97.35	1789
97.36	1778
97.37	1760
97.38	1755
97.39	1763
97.4	1774
97.41	1738
97.42	1748
97.43	1815
97.44	1842
97.45	1794
97.46	1752
97.47	1739
97.48	1772
97.49	1774
97.5	1759
97.51	1758
97.52	1770
97.53	1773
97.54	1737
97.55	1739
97.56	1738
97.57	1768
97.58	1775
97.59	1779
97.6	1789
97.61	1762
97.62	1788
97.63	1763
97.64	1749
97.65	1745
97.66	1798
97.67	1717
97.68	1724
97.69	1780
97.7	1755
97.71	1743
97.72	1752
97.73	1751
97.74	1790
97.75	1782
97.76	1788
97.77	1759
97.78	1740
97.79	1791
97.8	1813
97.81	1758
97.82	1761
97.83	1747
97.84	1739
97.85	1765
97.86	1752
97.87	1763
97.88	1787
97.89	1748
97.9	1736
97.91	1759
97.92	1733
97.93	1735
97.94	1723
97.95	1695
97.96	1732
97.97	1735
97.98	1782
97.99	1808
98.0	1748
98.01	1726
98.02	1721
98.03	1745
98.04	1776
98.05	1769
98.06	1776
98.07	1748
98.08	1737
98.09	1748
98.1	1772
98.11	1779
98.12	1768
98.13	1776
98.14	1780
98.15	1796
98.16	1806
98.17	1794
98.18	1814
98.19	1789
98.2	1759
98.21	1780
98.22	1784
98.23	1780
98.24	1761
98.25	1778
98.26	1805
98.27	1779
98.28	1763
98.29	1768
98.3	1788
98.31	1821
98.32	1833
98.33	1767
98.34	1729
98.35	1741
98.36	1765
98.37	1754
98.38	1788
98.39	1803
98.4	1794
98.41	1814
98.42	1849
98.43	1873
98.44	1856
98.45	1803
98.46	1796
98.47	1781
98.48	1812
98.49	1809
98.5	1798
98.51	1833
98.52	1778
98.53	1799
98.54	1837
98.55	1812
98.56	1808
98.57	1789
98.58	1778
98.59	1814
98.6	1850
98.61	1801
98.62	1810
98.63	1824
98.64	1820
98.65	1833
98.66	1850
98.67	1885
98.68	1878
98.69	1871
98.7	1817
98.71	1839
98.72	1865
98.73	1870
98.74	1920
98.75	1902
98.76	1876
98.77	1905
98.78	1923
98.79	1859
98.8	1857
98.81	1885
98.82	1876
98.83	1844
98.84	1907
98.85	1912
98.86	1916
98.87	1913
98.88	1896
98.89	1839
98.9	1862
98.91	1846
98.92	1856
98.93	1865
98.94	1879
98.95	1859
98.96	1845
98.97	1850
98.98	1861
98.99	1811
99.0	1825
99.01	1855
99.02	1831
99.03	1819
99.04	1855
99.05	1841
99.06	1820
99.07	1841
99.08	1838
99.09	1856
99.1	1797
99.11	1817
99.12	1831
99.13	1868
99.14	1836
99.15	1879
99.16	1807
99.17	1812
99.18	1787
99.19	1844
99.2	1795
99.21	1822
99.22	1815
99.23	1779
99.24	1778
99.25	1808
99.26	1811
99.27	1799
99.28	1786
99.29	1781
99.3	1816
99.31	1851
99.32	1791
99.33	1789
99.34	1818
99.35	1740
99.36	1736
99.37	1777
99.38	1701
99.39	1717
99.4	1787
99.41	1819
99.42	1743
99.43	1780
99.44	1817
99.45	1740
99.46	1748
99.47	1726
99.48	1748
99.49	1768
99.5	1708
99.51	1754
99.52	1789
99.53	1802
99.54	1749
99.55	1672
99.56	1730
99.57	1733
99.58	1813
99.59	1742
99.6	1711
99.61	1740
99.62	1726
99.63	1747
99.64	1747
99.65	1744
99.66	1757
99.67	1763
99.68	1733
99.69	1760
99.7	1784
99.71	1766
99.72	1747
99.73	1768
99.74	1739
99.75	1792
99.76	1756
99.77	1724
99.78	1712
99.79	1696
99.8	1679
99.81	1738
99.82	1694
99.83	1713
99.84	1747
99.85	1712
99.86	1737
99.87	1715
99.88	1704
99.89	1748
99.9	1732
99.91	1724
99.92	1755
99.93	1755
99.94	1765
99.95	1725
99.96	1736
99.97	1751
99.98	1735
99.99	1804
100.0	1803
