Single_TiO2anatase_l
Wavelength = 1.54059 Ã… (Cu)
10.0	4997
10.01	5099
10.02	5131
10.03	5168
10.04	5131
10.05	5106
10.06	5094
10.07	5096
10.08	5231
10.09	5181
10.1	5073
10.11	5094
10.12	5005
10.13	5128
10.14	5171
10.15	5150
10.16	5150
10.17	5222
10.18	5292
10.19	5273
10.2	5265
10.21	5270
10.22	5225
10.23	5261
10.24	5273
10.25	5324
10.26	5263
10.27	5259
10.28	5325
10.29	5310
10.3	5302
10.31	5323
10.32	5322
10.33	5284
10.34	5343
10.35	5282
10.36	5331
10.37	5278
10.38	5375
10.39	5325
10.4	5192
10.41	5229
10.42	5345
10.43	5388
10.44	5388
10.45	5398
10.46	5400
10.47	5429
10.48	5344
10.49	5421
10.5	5414
10.51	5415
10.52	5519
10.53	5478
10.54	5478
10.55	5486
10.56	5495
10.57	5445
10.58	5368
10.59	5398
10.6	5393
10.61	5332
10.62	5439
10.63	5521
10.64	5501
10.65	5537
10.66	5531
10.67	5582
10.68	5577
10.69	5471
10.7	5544
10.71	5566
10.72	5521
10.73	5577
10.74	5601
10.75	5533
10.76	5505
10.77	5550
10.78	5573
10.79	5555
10.8	5557
10.81	5604
10.82	5657
10.83	5646
10.84	5583
10.85	5592
10.86	5656
10.87	5694
10.88	5713
10.89	5662
10.9	5718
10.91	5759
10.92	5759
10.93	5694
10.94	5734
10.95	5750
10.96	5702
10.97	5675
10.98	5649
10.99	5828
11.0	5827
11.01	5786
11.02	5769
11.03	5830
11.04	5749
11.05	5832
11.06	5965
11.07	5789
11.08	5716
11.09	5729
11.1	5755
11.11	5753
11.12	5818
11.13	5947
11.14	5881
11.15	5956
11.16	5963
11.17	5989
11.18	6096
11.19	5938
11.2	6013
11.21	5965
11.22	6015
11.23	5960
11.24	5993
11.25	5968
11.26	5942
11.27	6020
11.28	5991
11.29	5996
11.3	6043
11.31	5979
11.32	6023
11.33	6108
11.34	6086
11.35	5973
11.36	6040
11.37	6064
11.38	6149
11.39	6056
11.4	6123
11.41	6197
11.42	6174
11.43	6163
11.44	6203
11.45	6097
11.46	6070
11.47	6152
11.48	6103
11.49	6137
11.5	6205
11.51	6257
11.52	6210
11.53	6251
11.54	6170
11.55	6224
11.56	6235
11.57	6201
11.58	6284
11.59	6207
11.6	6290
11.61	6310
11.62	6259
11.63	6361
11.64	6376
11.65	6250
11.66	6307
11.67	6375
11.68	6382
11.69	6363
11.7	6326
11.71	6371
11.72	6369
11.73	6348
11.74	6334
11.75	6390
11.76	6359
11.77	6366
11.78	6372
11.79	6306
11.8	6358
11.81	6429
11.82	6414
11.83	6360
11.84	6360
11.85	6379
11.86	6484
11.87	6452
11.88	6441
11.89	6434
11.9	6474
11.91	6512
11.92	6516
11.93	6457
11.94	6445
11.95	6590
11.96	6595
11.97	6566
11.98	6515
11.99	6682
12.0	6545
12.01	6535
12.02	6599
12.03	6516
12.04	6558
12.05	6660
12.06	6629
12.07	6640
12.08	6665
12.09	6702
12.1	6750
12.11	6739
12.12	6686
12.13	6783
12.14	6769
12.15	6745
12.16	6726
12.17	6736
12.18	6740
12.19	6777
12.2	6767
12.21	6720
12.22	6807
12.23	6845
12.24	6791
12.25	6803
12.26	6777
12.27	6807
12.28	6864
12.29	6844
12.3	6829
12.31	6827
12.32	6853
12.33	6886
12.34	6931
12.35	6953
12.36	6976
12.37	6935
12.38	6927
12.39	6863
12.4	6991
12.41	6965
12.42	6991
12.43	7050
12.44	7112
12.45	7122
12.46	7059
12.47	7159
12.48	7006
12.49	7063
12.5	7198
12.51	7147
12.52	7213
12.53	7260
12.54	7283
12.55	7297
12.56	7341
12.57	7246
12.58	7212
12.59	7301
12.6	7413
12.61	7407
12.62	7396
12.63	7422
12.64	7465
12.65	7392
12.66	7411
12.67	7438
12.68	7478
12.69	7515
12.7	7450
12.71	7487
12.72	7578
12.73	7683
12.74	7588
12.75	7503
12.76	7564
12.77	7654
12.78	7677
12.79	7654
12.8	7773
12.81	7746
12.82	7709
12.83	7768
12.84	7820
12.85	7926
12.86	7944
12.87	7837
12.88	7883
12.89	7872
12.9	7829
12.91	7939
12.92	7938
12.93	7990
12.94	8025
12.95	8080
12.96	8161
12.97	8237
12.98	8241
12.99	8297
13.0	8324
13.01	8255
13.02	8379
13.03	8408
13.04	8345
13.05	8372
13.06	8409
13.07	8410
13.08	8517
13.09	8576
13.1	8633
13.11	8659
13.12	8739
13.13	8849
13.14	8693
13.15	8618
13.16	8687
13.17	8810
13.18	8841
13.19	8855
13.2	8845
13.21	8906
13.22	8909
13.23	8947
13.24	8992
13.25	9105
13.26	9143
13.27	9200
13.28	9277
13.29	9164
13.3	9122
13.31	9143
13.32	9268
13.33	9347
13.34	9455
13.35	9475
13.36	9583
13.37	9676
13.38	9744
13.39	9749
13.4	9700
13.41	9754
13.42	9865
13.43	9964
13.44	9964
13.45	9919
13.46	10078
13.47	10068
13.48	10037
13.49	10053
13.5	10164
13.51	10332
13.52	10269
13.53	10268
13.54	10331
13.55	10437
13.56	10516
13.57	10515
13.58	10573
13.59	10716
13.6	10746
13.61	10608
13.62	10657
13.63	10771
13.64	10791
13.65	10909
13.66	10966
13.67	10943
13.68	11005
13.69	11049
13.7	11089
13.71	11121
13.72	11062
13.73	11182
13.74	11242
13.75	11239
13.76	11359
13.77	11399
13.78	11393
13.79	11475
13.8	11439
13.81	11446
13.82	11570
13.83	11712
13.84	11802
13.85	11919
13.86	11912
13.87	11880
13.88	11963
13.89	11912
13.9	12035
13.91	12073
13.92	12123
13.93	12121
13.94	12121
13.95	12096
13.96	12228
13.97	12407
13.98	12313
13.99	12337
14.0	12429
14.01	12457
14.02	12403
14.03	12447
14.04	12582
14.05	12664
14.06	12691
14.07	12545
14.08	12620
14.09	12776
14.1	12845
14.11	12721
14.12	12759
14.13	12763
14.14	12813
14.15	12960
14.16	12969
14.17	12964
14.18	13049
14.19	13079
14.2	13216
14.21	13307
14.22	13199
14.23	13122
14.24	13190
14.25	13222
14.26	13318
14.27	13302
14.28	13320
14.29	13340
14.3	13496
14.31	13524
14.32	13356
14.33	13416
14.34	13434
14.35	13442
14.36	13500
14.37	13470
14.38	13698
14.39	13844
14.4	13615
14.41	13547
14.42	13719
14.43	13725
14.44	13695
14.45	13735
14.46	13728
14.47	13731
14.48	13757
14.49	13639
14.5	13607
14.51	13775
14.52	13794
14.53	13888
14.54	13818
14.55	13756
14.56	13675
14.57	13650
14.58	13664
14.59	13794
14.6	13794
14.61	13913
14.62	14005
14.63	13895
14.64	13916
14.65	13850
14.66	13765
14.67	13908
14.68	13918
14.69	13962
14.7	14039
14.71	13815
14.72	13749
14.73	13786
14.74	13794
14.75	13734
14.76	13725
14.77	13734
14.78	13763
14.79	13918
14.8	13879
14.81	13808
14.82	13696
14.83	13738
14.84	13847
14.85	13837
14.86	13795
14.87	13889
14.88	13844
14.89	13813
14.9	13728
14.91	13660
14.92	13753
14.93	13919
14.94	13889
14.95	13851
14.96	13767
14.97	13646
14.98	13680
14.99	13730
15.0	13674
15.01	13708
15.02	13801
15.03	13846
15.04	13829
15.05	13697
15.06	13674
15.07	13664
15.08	13617
15.09	13694
15.1	13660
15.11	13546
15.12	13598
15.13	13622
15.14	13560
15.15	13607
15.16	13612
15.17	13599
15.18	13553
15.19	13556
15.2	13668
15.21	13568
15.22	13450
15.23	13495
15.24	13468
15.25	13580
15.26	13557
15.27	13450
15.28	13501
15.29	13595
15.3	13606
15.31	13548
15.32	13538
15.33	13545
15.34	13540
15.35	13430
15.36	13414
15.37	13434
15.38	13328
15.39	13326
15.4	13269
15.41	13271
15.42	13242
15.43	13275
15.44	13324
15.45	13399
15.46	13400
15.47	13234
15.48	13166
15.49	13218
15.5	13225
15.51	13266
15.52	13306
15.53	13300
15.54	13307
15.55	13216
15.56	13189
15.57	13227
15.58	13143
15.59	13155
15.6	13169
15.61	13034
15.62	12982
15.63	13056
15.64	13043
15.65	13001
15.66	13039
15.67	13056
15.68	13046
15.69	13131
15.7	13138
15.71	13051
15.72	12955
15.73	12904
15.74	12937
15.75	12933
15.76	12892
15.77	12896
15.78	12916
15.79	12982
15.8	12968
15.81	12943
15.82	12997
15.83	12949
15.84	12903
15.85	12887
15.86	12916
15.87	12868
15.88	12834
15.89	12822
15.9	12821
15.91	12860
15.92	12834
15.93	12812
15.94	12892
15.95	12886
15.96	12823
15.97	12764
15.98	12701
15.99	12781
16.0	12745
16.01	12620
16.02	12556
16.03	12680
16.04	12763
16.05	12734
16.06	12679
16.07	12807
16.08	12793
16.09	12605
16.1	12655
16.11	12740
16.12	12713
16.13	12736
16.14	12756
16.15	12683
16.16	12631
16.17	12636
16.18	12542
16.19	12531
16.2	12615
16.21	12683
16.22	12701
16.23	12660
16.24	12661
16.25	12628
16.26	12669
16.27	12690
16.28	12688
16.29	12664
16.3	12640
16.31	12617
16.32	12573
16.33	12538
16.34	12573
16.35	12570
16.36	12614
16.37	12696
16.38	12681
16.39	12655
16.4	12675
16.41	12662
16.42	12674
16.43	12659
16.44	12566
16.45	12569
16.46	12597
16.47	12578
16.48	12677
16.49	12803
16.5	12704
16.51	12604
16.52	12590
16.53	12615
16.54	12627
16.55	12547
16.56	12458
16.57	12499
16.58	12640
16.59	12659
16.6	12579
16.61	12554
16.62	12580
16.63	12621
16.64	12605
16.65	12517
16.66	12463
16.67	12502
16.68	12533
16.69	12501
16.7	12590
16.71	12673
16.72	12653
16.73	12653
16.74	12668
16.75	12745
16.76	12759
16.77	12672
16.78	12632
16.79	12674
16.8	12757
16.81	12793
16.82	12736
16.83	12738
16.84	12788
16.85	12754
16.86	12673
16.87	12776
16.88	12838
16.89	12824
16.9	12857
16.91	12782
16.92	12740
16.93	12723
16.94	12679
16.95	12661
16.96	12650
16.97	12690
16.98	12735
16.99	12857
17.0	12915
17.01	12788
17.02	12758
17.03	12766
17.04	12639
17.05	12600
17.06	12729
17.07	12770
17.08	12779
17.09	12791
17.1	12754
17.11	12669
17.12	12652
17.13	12750
17.14	12718
17.15	12649
17.16	12720
17.17	12778
17.18	12813
17.19	12850
17.2	12810
17.21	12737
17.22	12670
17.23	12649
17.24	12779
17.25	12893
17.26	12876
17.27	12843
17.28	12805
17.29	12838
17.3	12884
17.31	12796
17.32	12784
17.33	12780
17.34	12774
17.35	12863
17.36	12871
17.37	12873
17.38	12885
17.39	12905
17.4	12929
17.41	12879
17.42	12834
17.43	12765
17.44	12718
17.45	12792
17.46	12942
17.47	12974
17.48	12873
17.49	12879
17.5	12906
17.51	12846
17.52	12895
17.53	12961
17.54	12907
17.55	12882
17.56	12925
17.57	12904
17.58	12938
17.59	13011
17.6	12985
17.61	13006
17.62	13075
17.63	13049
17.64	12906
17.65	12867
17.66	12918
17.67	12952
17.68	12997
17.69	13003
17.7	13009
17.71	12924
17.72	12821
17.73	12878
17.74	12995
17.75	12953
17.76	12821
17.77	12799
17.78	12859
17.79	12999
17.8	13073
17.81	13108
17.82	13097
17.83	13030
17.84	13015
17.85	13031
17.86	13058
17.87	13041
17.88	13037
17.89	13100
17.9	13106
17.91	13068
17.92	13062
17.93	13096
17.94	13055
17.95	13059
17.96	13088
17.97	12993
17.98	12971
17.99	13116
18.0	13184
18.01	13155
18.02	13136
18.03	13116
18.04	13125
18.05	13114
18.06	13017
18.07	13022
18.08	13111
18.09	13146
18.1	13101
18.11	13093
18.12	13064
18.13	13039
18.14	13135
18.15	13192
18.16	13131
18.17	13071
18.18	13076
18.19	13071
18.2	13038
18.21	13042
18.22	13100
18.23	13026
18.24	12986
18.25	13101
18.26	13109
18.27	13164
18.28	13184
18.29	13116
18.3	13071
18.31	13078
18.32	13194
18.33	13228
18.34	13079
18.35	13017
18.36	13116
18.37	13214
18.38	13232
18.39	13219
18.4	13145
18.41	13137
18.42	13056
18.43	13056
18.44	13094
18.45	13015
18.46	13092
18.47	13189
18.48	13289
18.49	13343
18.5	13182
18.51	13108
18.52	13134
18.53	13154
18.54	13233
18.55	13174
18.56	13191
18.57	13203
18.58	13161
18.59	13213
18.6	13231
18.61	13298
18.62	13354
18.63	13309
18.64	13299
18.65	13273
18.66	13202
18.67	13171
18.68	13180
18.69	13124
18.7	13126
18.71	13150
18.72	13131
18.73	13120
18.74	13206
18.75	13214
18.76	13164
18.77	13124
18.78	13204
18.79	13214
18.8	13244
18.81	13316
18.82	13343
18.83	13224
18.84	13220
18.85	13270
18.86	13155
18.87	13211
18.88	13398
18.89	13361
18.9	13257
18.91	13289
18.92	13441
18.93	13494
18.94	13292
18.95	13210
18.96	13237
18.97	13175
18.98	13232
18.99	13491
19.0	13434
19.01	13266
19.02	13266
19.03	13251
19.04	13278
19.05	13341
19.06	13354
19.07	13250
19.08	13281
19.09	13244
19.1	13258
19.11	13339
19.12	13283
19.13	13290
19.14	13275
19.15	13288
19.16	13297
19.17	13187
19.18	13170
19.19	13226
19.2	13157
19.21	13166
19.22	13266
19.23	13257
19.24	13239
19.25	13102
19.26	13066
19.27	13121
19.28	13162
19.29	13221
19.3	13382
19.31	13402
19.32	13261
19.33	13184
19.34	13165
19.35	13143
19.36	13076
19.37	13039
19.38	13052
19.39	13057
19.4	13077
19.41	13116
19.42	13120
19.43	13101
19.44	13191
19.45	13254
19.46	13218
19.47	13190
19.48	13257
19.49	13195
19.5	13129
19.51	13106
19.52	13099
19.53	13047
19.54	13104
19.55	13178
19.56	13110
19.57	13112
19.58	13173
19.59	13145
19.6	13162
19.61	13178
19.62	13041
19.63	13034
19.64	13062
19.65	13060
19.66	13049
19.67	13072
19.68	13038
19.69	13024
19.7	13019
19.71	13046
19.72	13083
19.73	13089
19.74	13137
19.75	13094
19.76	13132
19.77	13148
19.78	13045
19.79	12980
19.8	12978
19.81	13110
19.82	13226
19.83	13114
19.84	13058
19.85	13067
19.86	13096
19.87	13023
19.88	13036
19.89	13086
19.9	13141
19.91	13142
19.92	13053
19.93	12958
19.94	12959
19.95	13065
19.96	12892
19.97	12900
19.98	13063
19.99	13106
20.0	13073
20.01	13020
20.02	12981
20.03	13011
20.04	13044
20.05	13031
20.06	13061
20.07	13109
20.08	13065
20.09	13165
20.1	13133
20.11	13018
20.12	13104
20.13	13088
20.14	12982
20.15	13003
20.16	13016
20.17	13033
20.18	13059
20.19	13017
20.2	13015
20.21	13127
20.22	13128
20.23	13025
20.24	13070
20.25	12971
20.26	13062
20.27	12996
20.28	12966
20.29	13001
20.3	13006
20.31	13060
20.32	13194
20.33	13120
20.34	13271
20.35	13225
20.36	13065
20.37	13031
20.38	13044
20.39	13074
20.4	13158
20.41	13167
20.42	13089
20.43	13072
20.44	13167
20.45	13208
20.46	13187
20.47	13179
20.48	13122
20.49	13098
20.5	13225
20.51	13238
20.52	13216
20.53	13264
20.54	13259
20.55	13217
20.56	13252
20.57	13282
20.58	13284
20.59	13273
20.6	13230
20.61	13194
20.62	13325
20.63	13358
20.64	13346
20.65	13289
20.66	13259
20.67	13342
20.68	13453
20.69	13334
20.7	13310
20.71	13318
20.72	13339
20.73	13441
20.74	13298
20.75	13195
20.76	13221
20.77	13333
20.78	13421
20.79	13418
20.8	13461
20.81	13459
20.82	13467
20.83	13557
20.84	13634
20.85	13629
20.86	13531
20.87	13484
20.88	13577
20.89	13410
20.9	13445
20.91	13505
20.92	13407
20.93	13445
20.94	13487
20.95	13567
20.96	13507
20.97	13583
20.98	13660
20.99	13681
21.0	13673
21.01	13686
21.02	13705
21.03	13623
21.04	13576
21.05	13618
21.06	13660
21.07	13747
21.08	13890
21.09	13841
21.1	13762
21.11	13721
21.12	13723
21.13	13866
21.14	13830
21.15	13902
21.16	13940
21.17	13878
21.18	13963
21.19	13880
21.2	13870
21.21	13892
21.22	13883
21.23	14004
21.24	13976
21.25	13836
21.26	14005
21.27	14089
21.28	14041
21.29	13980
21.3	13950
21.31	14064
21.32	14031
21.33	14080
21.34	14008
21.35	14086
21.36	14153
21.37	14207
21.38	14122
21.39	14072
21.4	14066
21.41	14255
21.42	14123
21.43	14190
21.44	14149
21.45	14141
21.46	14111
21.47	14113
21.48	14201
21.49	14205
21.5	14076
21.51	13982
21.52	14229
21.53	14247
21.54	14081
21.55	14172
21.56	14222
21.57	14255
21.58	14241
21.59	14102
21.6	14231
21.61	14224
21.62	14198
21.63	14199
21.64	14312
21.65	14312
21.66	14242
21.67	14163
21.68	14244
21.69	14274
21.7	14186
21.71	14121
21.72	14339
21.73	14392
21.74	14450
21.75	14243
21.76	14315
21.77	14322
21.78	14417
21.79	14357
21.8	14238
21.81	14200
21.82	14318
21.83	14174
21.84	14286
21.85	14251
21.86	14164
21.87	14191
21.88	14267
21.89	14217
21.9	14167
21.91	14181
21.92	14143
21.93	14113
21.94	14112
21.95	14255
21.96	14144
21.97	14150
21.98	14171
21.99	14140
22.0	14064
22.01	13949
22.02	13974
22.03	14074
22.04	14119
22.05	14166
22.06	13997
22.07	14055
22.08	14150
22.09	13976
22.1	13926
22.11	13943
22.12	13880
22.13	13876
22.14	13963
22.15	13922
22.16	13790
22.17	13808
22.18	13941
22.19	13787
22.2	13715
22.21	13811
22.22	13709
22.23	13804
22.24	13798
22.25	13750
22.26	13694
22.27	13596
22.28	13581
22.29	13678
22.3	13556
22.31	13444
22.32	13442
22.33	13567
22.34	13502
22.35	13322
22.36	13446
22.37	13381
22.38	13437
22.39	13686
22.4	13507
22.41	13266
22.42	13355
22.43	13227
22.44	13038
22.45	13078
22.46	13095
22.47	13113
22.48	13175
22.49	13227
22.5	13137
22.51	12994
22.52	13068
22.53	13039
22.54	13017
22.55	12953
22.56	12843
22.57	12822
22.58	12842
22.59	13032
22.6	12888
22.61	12910
22.62	12790
22.63	12745
22.64	12647
22.65	12740
22.66	12681
22.67	12625
22.68	12495
22.69	12486
22.7	12525
22.71	12466
22.72	12414
22.73	12426
22.74	12428
22.75	12449
22.76	12402
22.77	12332
22.78	12346
22.79	12260
22.8	12063
22.81	11998
22.82	12017
22.83	12107
22.84	12062
22.85	12036
22.86	12123
22.87	12061
22.88	12050
22.89	11910
22.9	11933
22.91	11967
22.92	11972
22.93	11838
22.94	11767
22.95	11719
22.96	11696
22.97	11539
22.98	11543
22.99	11534
23.0	11535
23.01	11521
23.02	11517
23.03	11587
23.04	11521
23.05	11467
23.06	11454
23.07	11407
23.08	11473
23.09	11395
23.1	11376
23.11	11218
23.12	11099
23.13	11292
23.14	11317
23.15	11265
23.16	11207
23.17	11157
23.18	11046
23.19	11165
23.2	11222
23.21	11019
23.22	11007
23.23	10966
23.24	11017
23.25	10926
23.26	10809
23.27	10713
23.28	10842
23.29	10947
23.3	10967
23.31	10796
23.32	10687
23.33	10695
23.34	10682
23.35	10647
23.36	10585
23.37	10565
23.38	10571
23.39	10591
23.4	10661
23.41	10508
23.42	10423
23.43	10451
23.44	10389
23.45	10390
23.46	10438
23.47	10368
23.48	10286
23.49	10466
23.5	10335
23.51	10281
23.52	10164
23.53	10104
23.54	10079
23.55	10290
23.56	10283
23.57	10111
23.58	10105
23.59	10193
23.6	10164
23.61	10088
23.62	9995
23.63	9965
23.64	9959
23.65	10046
23.66	10080
23.67	10003
23.68	9963
23.69	9895
23.7	9857
23.71	9939
23.72	9862
23.73	9822
23.74	9756
23.75	9857
23.76	9817
23.77	9776
23.78	9770
23.79	9671
23.8	9660
23.81	9731
23.82	9759
23.83	9694
23.84	9610
23.85	9657
23.86	9722
23.87	9706
23.88	9695
23.89	9605
23.9	9608
23.91	9725
23.92	9721
23.93	9624
23.94	9570
23.95	9496
23.96	9535
23.97	9474
23.98	9500
23.99	9567
24.0	9511
24.01	9478
24.02	9608
24.03	9596
24.04	9527
24.05	9513
24.06	9381
24.07	9338
24.08	9357
24.09	9432
24.1	9530
24.11	9497
24.12	9264
24.13	9278
24.14	9334
24.15	9300
24.16	9320
24.17	9303
24.18	9326
24.19	9320
24.2	9329
24.21	9334
24.22	9301
24.23	9254
24.24	9250
24.25	9291
24.26	9336
24.27	9244
24.28	9120
24.29	9167
24.3	9245
24.31	9176
24.32	9270
24.33	9309
24.34	9263
24.35	9215
24.36	9138
24.37	9163
24.38	9286
24.39	9362
24.4	9266
24.41	9238
24.42	9275
24.43	9192
24.44	9205
24.45	9166
24.46	9046
24.47	9118
24.48	9208
24.49	9239
24.5	9120
24.51	9150
24.52	9129
24.53	9218
24.54	9101
24.55	9018
24.56	9156
24.57	9120
24.58	9192
24.59	9155
24.6	9191
24.61	9181
24.62	9114
24.63	9160
24.64	9260
24.65	9271
24.66	9225
24.67	9239
24.68	9253
24.69	9160
24.7	9114
24.71	9254
24.72	9293
24.73	9245
24.74	9299
24.75	9380
24.76	9387
24.77	9321
24.78	9346
24.79	9336
24.8	9341
24.81	9456
24.82	9437
24.83	9393
24.84	9483
24.85	9507
24.86	9466
24.87	9484
24.88	9482
24.89	9464
24.9	9577
24.91	9645
24.92	9687
24.93	9747
24.94	9705
24.95	9723
24.96	9740
24.97	9848
24.98	9932
24.99	9909
25.0	9909
25.01	9826
25.02	9831
25.03	9976
25.04	10055
25.05	10125
25.06	10148
25.07	10261
25.08	10356
25.09	10427
25.1	10549
25.11	10630
25.12	10572
25.13	10633
25.14	10706
25.15	10782
25.16	10729
25.17	10913
25.18	11028
25.19	11072
25.2	11139
25.21	11165
25.22	11174
25.23	11176
25.24	11161
25.25	11260
25.26	11270
25.27	11258
25.28	11342
25.29	11418
25.3	11474
25.31	11452
25.32	11445
25.33	11419
25.34	11375
25.35	11274
25.36	11330
25.37	11399
25.38	11352
25.39	11247
25.4	11189
25.41	11156
25.42	11049
25.43	10946
25.44	10932
25.45	10987
25.46	10878
25.47	10785
25.48	10766
25.49	10775
25.5	10653
25.51	10548
25.52	10438
25.53	10363
25.54	10401
25.55	10369
25.56	10285
25.57	10305
25.58	10317
25.59	10249
25.6	10169
25.61	10026
25.62	10011
25.63	10041
25.64	9981
25.65	9946
25.66	9953
25.67	9897
25.68	9841
25.69	9906
25.7	9919
25.71	9918
25.72	9896
25.73	9791
25.74	9695
25.75	9698
25.76	9619
25.77	9524
25.78	9579
25.79	9668
25.8	9683
25.81	9619
25.82	9563
25.83	9585
25.84	9588
25.85	9614
25.86	9520
25.87	9439
25.88	9441
25.89	9459
25.9	9456
25.91	9469
25.92	9433
25.93	9327
25.94	9373
25.95	9440
25.96	9353
25.97	9274
25.98	9227
25.99	9286
26.0	9350
26.01	9424
26.02	9568
26.03	9552
26.04	9466
26.05	9440
26.06	9443
26.07	9385
26.08	9281
26.09	9312
26.1	9329
26.11	9300
26.12	9264
26.13	9214
26.14	9164
26.15	9171
26.16	9181
26.17	9270
26.18	9261
26.19	9205
26.2	9202
26.21	9156
26.22	9164
26.23	9183
26.24	9224
26.25	9107
26.26	9089
26.27	9162
26.28	9142
26.29	9118
26.3	9132
26.31	9095
26.32	8997
26.33	9008
26.34	9018
26.35	8942
26.36	8870
26.37	8972
26.38	9053
26.39	9064
26.4	9022
26.41	8950
26.42	8872
26.43	8812
26.44	8799
26.45	8828
26.46	8767
26.47	8762
26.48	8810
26.49	8762
26.5	8698
26.51	8716
26.52	8780
26.53	8779
26.54	8708
26.55	8632
26.56	8607
26.57	8633
26.58	8592
26.59	8568
26.6	8609
26.61	8689
26.62	8693
26.63	8677
26.64	8585
26.65	8478
26.66	8435
26.67	8515
26.68	8577
26.69	8485
26.7	8410
26.71	8365
26.72	8310
26.73	8328
26.74	8426
26.75	8448
26.76	8376
26.77	8340
26.78	8372
26.79	8386
26.8	8304
26.81	8238
26.82	8191
26.83	8114
26.84	8184
26.85	8265
26.86	8154
26.87	8131
26.88	8133
26.89	8040
26.9	8042
26.91	8108
26.92	8108
26.93	8071
26.94	8076
26.95	8105
26.96	8061
26.97	7962
26.98	7910
26.99	7883
27.0	7872
27.01	7871
27.02	7787
27.03	7748
27.04	7746
27.05	7751
27.06	7699
27.07	7641
27.08	7671
27.09	7713
27.1	7730
27.11	7698
27.12	7565
27.13	7470
27.14	7492
27.15	7518
27.16	7583
27.17	7640
27.18	7614
27.19	7568
27.2	7495
27.21	7406
27.22	7360
27.23	7388
27.24	7398
27.25	7371
27.26	7348
27.27	7292
27.28	7293
27.29	7281
27.3	7278
27.31	7372
27.32	7366
27.33	7259
27.34	7250
27.35	7276
27.36	7220
27.37	7215
27.38	7247
27.39	7203
27.4	7191
27.41	7173
27.42	7123
27.43	7085
27.44	7118
27.45	7119
27.46	7035
27.47	7047
27.48	7044
27.49	6996
27.5	6995
27.51	6994
27.52	6945
27.53	6934
27.54	6894
27.55	6792
27.56	6811
27.57	6857
27.58	6856
27.59	6873
27.6	6844
27.61	6808
27.62	6806
27.63	6779
27.64	6732
27.65	6672
27.66	6656
27.67	6681
27.68	6637
27.69	6591
27.7	6543
27.71	6546
27.72	6583
27.73	6599
27.74	6539
27.75	6512
27.76	6575
27.77	6519
27.78	6355
27.79	6350
27.8	6468
27.81	6527
27.82	6526
27.83	6504
27.84	6506
27.85	6479
27.86	6432
27.87	6398
27.88	6369
27.89	6408
27.9	6312
27.91	6215
27.92	6235
27.93	6289
27.94	6253
27.95	6269
27.96	6266
27.97	6261
27.98	6281
27.99	6276
28.0	6174
28.01	6095
28.02	6153
28.03	6179
28.04	6159
28.05	6126
28.06	6087
28.07	6077
28.08	6052
28.09	6059
28.1	6064
28.11	6074
28.12	6072
28.13	6078
28.14	6033
28.15	5990
28.16	5978
28.17	6001
28.18	5995
28.19	5942
28.2	5911
28.21	5911
28.22	5922
28.23	5973
28.24	5995
28.25	5937
28.26	5841
28.27	5846
28.28	5798
28.29	5784
28.3	5866
28.31	5804
28.32	5789
28.33	5819
28.34	5737
28.35	5756
28.36	5817
28.37	5773
28.38	5671
28.39	5622
28.4	5648
28.41	5696
28.42	5693
28.43	5645
28.44	5654
28.45	5617
28.46	5612
28.47	5674
28.48	5680
28.49	5666
28.5	5675
28.51	5590
28.52	5520
28.53	5558
28.54	5580
28.55	5553
28.56	5568
28.57	5591
28.58	5635
28.59	5666
28.6	5609
28.61	5641
28.62	5613
28.63	5604
28.64	5670
28.65	5699
28.66	5713
28.67	5712
28.68	5697
28.69	5630
28.7	5521
28.71	5513
28.72	5576
28.73	5570
28.74	5489
28.75	5422
28.76	5417
28.77	5391
28.78	5360
28.79	5375
28.8	5345
28.81	5313
28.82	5278
28.83	5265
28.84	5223
28.85	5263
28.86	5259
28.87	5253
28.88	5267
28.89	5255
28.9	5258
28.91	5182
28.92	5106
28.93	5061
28.94	5096
28.95	5127
28.96	5087
28.97	5115
28.98	5096
28.99	5045
29.0	5087
29.01	5078
29.02	5077
29.03	5066
29.04	5039
29.05	5061
29.06	5018
29.07	4979
29.08	4993
29.09	5008
29.1	5013
29.11	5025
29.12	4966
29.13	5017
29.14	5028
29.15	4970
29.16	5002
29.17	5017
29.18	4936
29.19	4934
29.2	4923
29.21	4932
29.22	4895
29.23	4860
29.24	4915
29.25	4921
29.26	4867
29.27	4808
29.28	4814
29.29	4815
29.3	4793
29.31	4794
29.32	4820
29.33	4826
29.34	4795
29.35	4848
29.36	4814
29.37	4716
29.38	4692
29.39	4728
29.4	4691
29.41	4725
29.42	4673
29.43	4719
29.44	4736
29.45	4705
29.46	4771
29.47	4766
29.48	4637
29.49	4605
29.5	4622
29.51	4654
29.52	4634
29.53	4600
29.54	4590
29.55	4545
29.56	4553
29.57	4483
29.58	4497
29.59	4528
29.6	4534
29.61	4481
29.62	4507
29.63	4504
29.64	4427
29.65	4498
29.66	4547
29.67	4498
29.68	4502
29.69	4485
29.7	4442
29.71	4460
29.72	4461
29.73	4418
29.74	4463
29.75	4486
29.76	4476
29.77	4467
29.78	4366
29.79	4372
29.8	4392
29.81	4385
29.82	4449
29.83	4375
29.84	4377
29.85	4351
29.86	4305
29.87	4223
29.88	4277
29.89	4308
29.9	4322
29.91	4330
29.92	4301
29.93	4303
29.94	4298
29.95	4322
29.96	4335
29.97	4294
29.98	4278
29.99	4264
30.0	4220
30.01	4246
30.02	4339
30.03	4254
30.04	4267
30.05	4204
30.06	4180
30.07	4156
30.08	4219
30.09	4232
30.1	4205
30.11	4140
30.12	4130
30.13	4121
30.14	4127
30.15	4151
30.16	4182
30.17	4203
30.18	4184
30.19	4155
30.2	4168
30.21	4146
30.22	4115
30.23	4025
30.24	4056
30.25	4082
30.26	4074
30.27	4047
30.28	4055
30.29	4066
30.3	4056
30.31	4049
30.32	4070
30.33	4047
30.34	4014
30.35	4010
30.36	3987
30.37	4002
30.38	3994
30.39	4018
30.4	4042
30.41	3999
30.42	3939
30.43	3948
30.44	3941
30.45	4017
30.46	3932
30.47	3953
30.48	3959
30.49	3971
30.5	3938
30.51	3919
30.52	3872
30.53	3858
30.54	3893
30.55	3898
30.56	3866
30.57	3959
30.58	4005
30.59	3967
30.6	3939
30.61	3865
30.62	3900
30.63	3859
30.64	3859
30.65	3897
30.66	3926
30.67	3850
30.68	3901
30.69	3907
30.7	3831
30.71	3858
30.72	3823
30.73	3760
30.74	3730
30.75	3781
30.76	3790
30.77	3784
30.78	3854
30.79	3819
30.8	3709
30.81	3742
30.82	3769
30.83	3738
30.84	3782
30.85	3775
30.86	3753
30.87	3721
30.88	3735
30.89	3674
30.9	3730
30.91	3759
30.92	3794
30.93	3713
30.94	3668
30.95	3692
30.96	3709
30.97	3673
30.98	3630
30.99	3637
31.0	3683
31.01	3706
31.02	3736
31.03	3696
31.04	3632
31.05	3658
31.06	3635
31.07	3568
31.08	3589
31.09	3670
31.1	3606
31.11	3495
31.12	3542
31.13	3547
31.14	3556
31.15	3540
31.16	3573
31.17	3548
31.18	3508
31.19	3543
31.2	3566
31.21	3538
31.22	3488
31.23	3547
31.24	3536
31.25	3488
31.26	3516
31.27	3540
31.28	3591
31.29	3567
31.3	3610
31.31	3584
31.32	3535
31.33	3493
31.34	3494
31.35	3485
31.36	3438
31.37	3383
31.38	3310
31.39	3489
31.4	3546
31.41	3474
31.42	3440
31.43	3499
31.44	3459
31.45	3400
31.46	3417
31.47	3400
31.48	3368
31.49	3435
31.5	3440
31.51	3460
31.52	3410
31.53	3422
31.54	3483
31.55	3456
31.56	3461
31.57	3384
31.58	3413
31.59	3501
31.6	3434
31.61	3372
31.62	3409
31.63	3370
31.64	3382
31.65	3416
31.66	3364
31.67	3352
31.68	3391
31.69	3456
31.7	3364
31.71	3394
31.72	3349
31.73	3323
31.74	3384
31.75	3370
31.76	3311
31.77	3280
31.78	3310
31.79	3371
31.8	3318
31.81	3408
31.82	3303
31.83	3259
31.84	3353
31.85	3342
31.86	3285
31.87	3324
31.88	3295
31.89	3287
31.9	3287
31.91	3319
31.92	3368
31.93	3266
31.94	3238
31.95	3239
31.96	3248
31.97	3228
31.98	3215
31.99	3208
32.0	3262
32.01	3232
32.02	3247
32.03	3332
32.04	3234
32.05	3202
32.06	3217
32.07	3214
32.08	3193
32.09	3194
32.1	3153
32.11	3255
32.12	3239
32.13	3144
32.14	3173
32.15	3155
32.16	3242
32.17	3143
32.18	3115
32.19	3153
32.2	3167
32.21	3202
32.22	3205
32.23	3195
32.24	3171
32.25	3153
32.26	3094
32.27	3114
32.28	3114
32.29	3147
32.3	3184
32.31	3212
32.32	3150
32.33	3139
32.34	3088
32.35	3120
32.36	3127
32.37	3081
32.38	3153
32.39	3108
32.4	3083
32.41	3100
32.42	3121
32.43	3121
32.44	3057
32.45	3083
32.46	3131
32.47	3158
32.48	3113
32.49	3115
32.5	3124
32.51	3121
32.52	3112
32.53	3133
32.54	3062
32.55	3016
32.56	2995
32.57	3012
32.58	3072
32.59	3123
32.6	3063
32.61	3022
32.62	3113
32.63	3081
32.64	2984
32.65	3006
32.66	3024
32.67	2996
32.68	3065
32.69	3107
32.7	3042
32.71	2979
32.72	2985
32.73	3046
32.74	3060
32.75	3030
32.76	2983
32.77	2989
32.78	2947
32.79	2986
32.8	3018
32.81	3110
32.82	3001
32.83	2974
32.84	2919
32.85	2951
32.86	2996
32.87	3027
32.88	2989
32.89	2990
32.9	3015
32.91	2974
32.92	2919
32.93	2945
32.94	3000
32.95	2975
32.96	3000
32.97	2933
32.98	2965
32.99	2894
33.0	2955
33.01	2977
33.02	2926
33.03	2910
33.04	2941
33.05	2946
33.06	2908
33.07	2856
33.08	2915
33.09	2952
33.1	2914
33.11	2958
33.12	2980
33.13	2908
33.14	2881
33.15	2875
33.16	2896
33.17	2903
33.18	2851
33.19	2824
33.2	2929
33.21	2966
33.22	2948
33.23	2909
33.24	2874
33.25	2858
33.26	2876
33.27	2955
33.28	2891
33.29	2825
33.3	2898
33.31	2865
33.32	2814
33.33	2852
33.34	2896
33.35	2863
33.36	2796
33.37	2855
33.38	2852
33.39	2879
33.4	2865
33.41	2874
33.42	2812
33.43	2807
33.44	2811
33.45	2812
33.46	2812
33.47	2786
33.48	2822
33.49	2843
33.5	2826
33.51	2860
33.52	2861
33.53	2820
33.54	2822
33.55	2790
33.56	2794
33.57	2828
33.58	2810
33.59	2850
33.6	2851
33.61	2746
33.62	2730
33.63	2766
33.64	2764
33.65	2808
33.66	2771
33.67	2758
33.68	2764
33.69	2782
33.7	2748
33.71	2747
33.72	2799
33.73	2836
33.74	2824
33.75	2792
33.76	2761
33.77	2754
33.78	2798
33.79	2762
33.8	2747
33.81	2833
33.82	2810
33.83	2788
33.84	2768
33.85	2786
33.86	2807
33.87	2762
33.88	2736
33.89	2750
33.9	2729
33.91	2751
33.92	2755
33.93	2751
33.94	2740
33.95	2750
33.96	2734
33.97	2695
33.98	2771
33.99	2819
34.0	2752
34.01	2723
34.02	2757
34.03	2753
34.04	2706
34.05	2714
34.06	2759
34.07	2769
34.08	2744
34.09	2682
34.1	2695
34.11	2702
34.12	2676
34.13	2665
34.14	2681
34.15	2737
34.16	2714
34.17	2690
34.18	2717
34.19	2756
34.2	2762
34.21	2737
34.22	2689
34.23	2678
34.24	2655
34.25	2683
34.26	2696
34.27	2705
34.28	2651
34.29	2665
34.3	2674
34.31	2700
34.32	2738
34.33	2700
34.34	2661
34.35	2662
34.36	2700
34.37	2750
34.38	2753
34.39	2734
34.4	2676
34.41	2676
34.42	2684
34.43	2640
34.44	2670
34.45	2702
34.46	2692
34.47	2694
34.48	2696
34.49	2678
34.5	2661
34.51	2679
34.52	2679
34.53	2666
34.54	2719
34.55	2654
34.56	2598
34.57	2664
34.58	2730
34.59	2701
34.6	2668
34.61	2674
34.62	2680
34.63	2670
34.64	2630
34.65	2606
34.66	2646
34.67	2648
34.68	2657
34.69	2649
34.7	2641
34.71	2688
34.72	2697
34.73	2647
34.74	2631
34.75	2612
34.76	2645
34.77	2672
34.78	2628
34.79	2632
34.8	2660
34.81	2613
34.82	2580
34.83	2636
34.84	2685
34.85	2645
34.86	2668
34.87	2728
34.88	2704
34.89	2678
34.9	2663
34.91	2638
34.92	2644
34.93	2630
34.94	2645
34.95	2645
34.96	2670
34.97	2683
34.98	2672
34.99	2684
35.0	2699
35.01	2706
35.02	2652
35.03	2606
35.04	2617
35.05	2612
35.06	2598
35.07	2570
35.08	2611
35.09	2656
35.1	2679
35.11	2724
35.12	2715
35.13	2691
35.14	2646
35.15	2613
35.16	2687
35.17	2663
35.18	2632
35.19	2619
35.2	2594
35.21	2604
35.22	2611
35.23	2646
35.24	2644
35.25	2602
35.26	2578
35.27	2616
35.28	2675
35.29	2678
35.3	2657
35.31	2674
35.32	2658
35.33	2641
35.34	2636
35.35	2626
35.36	2605
35.37	2604
35.38	2645
35.39	2651
35.4	2617
35.41	2627
35.42	2649
35.43	2658
35.44	2684
35.45	2709
35.46	2704
35.47	2662
35.48	2663
35.49	2666
35.5	2648
35.51	2660
35.52	2665
35.53	2647
35.54	2632
35.55	2628
35.56	2660
35.57	2686
35.58	2624
35.59	2600
35.6	2636
35.61	2661
35.62	2680
35.63	2669
35.64	2619
35.65	2623
35.66	2630
35.67	2646
35.68	2675
35.69	2630
35.7	2619
35.71	2660
35.72	2650
35.73	2624
35.74	2609
35.75	2646
35.76	2704
35.77	2702
35.78	2664
35.79	2652
35.8	2667
35.81	2687
35.82	2685
35.83	2658
35.84	2585
35.85	2606
35.86	2687
35.87	2683
35.88	2650
35.89	2655
35.9	2665
35.91	2663
35.92	2699
35.93	2712
35.94	2698
35.95	2645
35.96	2599
35.97	2663
35.98	2669
35.99	2650
36.0	2678
36.01	2677
36.02	2701
36.03	2734
36.04	2717
36.05	2694
36.06	2718
36.07	2724
36.08	2661
36.09	2652
36.1	2701
36.11	2691
36.12	2676
36.13	2697
36.14	2690
36.15	2671
36.16	2656
36.17	2650
36.18	2627
36.19	2616
36.2	2647
36.21	2667
36.22	2655
36.23	2614
36.24	2616
36.25	2648
36.26	2634
36.27	2626
36.28	2661
36.29	2678
36.3	2644
36.31	2603
36.32	2593
36.33	2605
36.34	2617
36.35	2624
36.36	2645
36.37	2658
36.38	2636
36.39	2644
36.4	2645
36.41	2591
36.42	2586
36.43	2631
36.44	2639
36.45	2610
36.46	2609
36.47	2613
36.48	2613
36.49	2614
36.5	2587
36.51	2570
36.52	2575
36.53	2599
36.54	2607
36.55	2614
36.56	2657
36.57	2657
36.58	2649
36.59	2647
36.6	2631
36.61	2621
36.62	2613
36.63	2621
36.64	2625
36.65	2614
36.66	2574
36.67	2542
36.68	2575
36.69	2635
36.7	2643
36.71	2642
36.72	2660
36.73	2657
36.74	2666
36.75	2679
36.76	2660
36.77	2607
36.78	2603
36.79	2661
36.8	2656
36.81	2631
36.82	2620
36.83	2639
36.84	2658
36.85	2655
36.86	2652
36.87	2619
36.88	2605
36.89	2610
36.9	2640
36.91	2647
36.92	2650
36.93	2658
36.94	2667
36.95	2646
36.96	2629
36.97	2660
36.98	2677
36.99	2633
37.0	2580
37.01	2589
37.02	2631
37.03	2661
37.04	2656
37.05	2609
37.06	2585
37.07	2587
37.08	2597
37.09	2595
37.1	2596
37.11	2606
37.12	2644
37.13	2636
37.14	2614
37.15	2629
37.16	2594
37.17	2591
37.18	2634
37.19	2653
37.2	2597
37.21	2564
37.22	2578
37.23	2565
37.24	2602
37.25	2663
37.26	2674
37.27	2649
37.28	2617
37.29	2575
37.3	2605
37.31	2621
37.32	2613
37.33	2610
37.34	2606
37.35	2582
37.36	2590
37.37	2604
37.38	2599
37.39	2649
37.4	2680
37.41	2676
37.42	2688
37.43	2684
37.44	2659
37.45	2600
37.46	2620
37.47	2694
37.48	2713
37.49	2706
37.5	2724
37.51	2738
37.52	2685
37.53	2675
37.54	2741
37.55	2763
37.56	2744
37.57	2738
37.58	2745
37.59	2732
37.6	2752
37.61	2791
37.62	2808
37.63	2823
37.64	2838
37.65	2831
37.66	2777
37.67	2779
37.68	2862
37.69	2892
37.7	2842
37.71	2862
37.72	2928
37.73	2949
37.74	2900
37.75	2853
37.76	2903
37.77	2933
37.78	2897
37.79	2912
37.8	2923
37.81	2912
37.82	2944
37.83	2945
37.84	2918
37.85	2902
37.86	2888
37.87	2902
37.88	2890
37.89	2861
37.9	2859
37.91	2870
37.92	2872
37.93	2844
37.94	2886
37.95	2844
37.96	2805
37.97	2786
37.98	2773
37.99	2756
38.0	2787
38.01	2832
38.02	2799
38.03	2734
38.04	2732
38.05	2775
38.06	2725
38.07	2657
38.08	2692
38.09	2708
38.1	2678
38.11	2627
38.12	2623
38.13	2572
38.14	2540
38.15	2573
38.16	2596
38.17	2648
38.18	2633
38.19	2606
38.2	2543
38.21	2516
38.22	2530
38.23	2497
38.24	2453
38.25	2493
38.26	2515
38.27	2507
38.28	2546
38.29	2562
38.3	2485
38.31	2488
38.32	2496
38.33	2441
38.34	2416
38.35	2479
38.36	2501
38.37	2456
38.38	2467
38.39	2438
38.4	2420
38.41	2392
38.42	2411
38.43	2471
38.44	2460
38.45	2437
38.46	2447
38.47	2409
38.48	2374
38.49	2401
38.5	2429
38.51	2428
38.52	2393
38.53	2396
38.54	2406
38.55	2383
38.56	2427
38.57	2413
38.58	2410
38.59	2431
38.6	2429
38.61	2391
38.62	2371
38.63	2311
38.64	2345
38.65	2378
38.66	2361
38.67	2388
38.68	2408
38.69	2396
38.7	2345
38.71	2332
38.72	2348
38.73	2329
38.74	2379
38.75	2370
38.76	2332
38.77	2330
38.78	2343
38.79	2302
38.8	2281
38.81	2282
38.82	2239
38.83	2234
38.84	2277
38.85	2262
38.86	2242
38.87	2276
38.88	2255
38.89	2205
38.9	2178
38.91	2181
38.92	2205
38.93	2209
38.94	2171
38.95	2161
38.96	2196
38.97	2223
38.98	2187
38.99	2189
39.0	2170
39.01	2127
39.02	2140
39.03	2175
39.04	2170
39.05	2138
39.06	2137
39.07	2157
39.08	2144
39.09	2098
39.1	2091
39.11	2121
39.12	2129
39.13	2105
39.14	2106
39.15	2142
39.16	2120
39.17	2069
39.18	2094
39.19	2146
39.2	2146
39.21	2140
39.22	2091
39.23	2077
39.24	2078
39.25	2123
39.26	2138
39.27	2117
39.28	2079
39.29	2096
39.3	2122
39.31	2119
39.32	2095
39.33	2014
39.34	2013
39.35	2072
39.36	2061
39.37	2076
39.38	2130
39.39	2102
39.4	2079
39.41	2080
39.42	2012
39.43	2036
39.44	2070
39.45	2038
39.46	2070
39.47	2037
39.48	2006
39.49	2023
39.5	2004
39.51	2028
39.52	2027
39.53	2079
39.54	2082
39.55	2062
39.56	2040
39.57	2058
39.58	2036
39.59	2005
39.6	2058
39.61	2039
39.62	2016
39.63	2024
39.64	2018
39.65	2011
39.66	2035
39.67	2026
39.68	2056
39.69	2084
39.7	2068
39.71	2047
39.72	2044
39.73	2052
39.74	2070
39.75	2045
39.76	2041
39.77	2025
39.78	2002
39.79	2027
39.8	2016
39.81	2037
39.82	2003
39.83	1993
39.84	1998
39.85	1975
39.86	1971
39.87	1955
39.88	1967
39.89	2030
39.9	2034
39.91	1994
39.92	1962
39.93	1993
39.94	1995
39.95	1984
39.96	1958
39.97	1974
39.98	2005
39.99	2018
40.0	2004
40.01	2002
40.02	1980
40.03	1961
40.04	1995
40.05	2006
40.06	2008
40.07	1969
40.08	1997
40.09	2041
40.1	2039
40.11	1977
40.12	2005
40.13	2014
40.14	1979
40.15	1975
40.16	1998
40.17	1984
40.18	1945
40.19	1991
40.2	2001
40.21	1978
40.22	1951
40.23	1977
40.24	1986
40.25	1980
40.26	1943
40.27	1974
40.28	2025
40.29	2008
40.3	1992
40.31	1955
40.32	1972
40.33	1955
40.34	1972
40.35	2011
40.36	2016
40.37	2019
40.38	1978
40.39	1963
40.4	1947
40.41	1956
40.42	1932
40.43	1973
40.44	1982
40.45	1990
40.46	1932
40.47	1932
40.48	1939
40.49	1998
40.5	2042
40.51	1995
40.52	1947
40.53	1947
40.54	1997
40.55	1997
40.56	1974
40.57	1988
40.58	1994
40.59	1958
40.6	1980
40.61	2023
40.62	1974
40.63	1946
40.64	1935
40.65	1964
40.66	1981
40.67	2003
40.68	2000
40.69	2003
40.7	1967
40.71	1937
40.72	1928
40.73	1934
40.74	1960
40.75	1931
40.76	1937
40.77	1945
40.78	1915
40.79	1920
40.8	1999
40.81	1990
40.82	1990
40.83	2027
40.84	1976
40.85	1973
40.86	1982
40.87	1929
40.88	1936
40.89	1959
40.9	1973
40.91	1963
40.92	1977
40.93	1960
40.94	1996
40.95	2008
40.96	1968
40.97	1968
40.98	1909
40.99	1973
41.0	1994
41.01	2017
41.02	1984
41.03	1992
41.04	1944
41.05	1972
41.06	1988
41.07	1988
41.08	2007
41.09	1935
41.1	1957
41.11	1979
41.12	1938
41.13	1930
41.14	1955
41.15	1934
41.16	1937
41.17	1928
41.18	1911
41.19	1964
41.2	2001
41.21	1973
41.22	1945
41.23	1915
41.24	1907
41.25	1943
41.26	1926
41.27	1918
41.28	1998
41.29	2078
41.3	1970
41.31	1920
41.32	1965
41.33	1990
41.34	2000
41.35	2013
41.36	1977
41.37	1944
41.38	1909
41.39	1926
41.4	2020
41.41	2032
41.42	1953
41.43	2006
41.44	2008
41.45	1955
41.46	1981
41.47	1944
41.48	1927
41.49	1938
41.5	1967
41.51	1987
41.52	1969
41.53	1988
41.54	1929
41.55	1936
41.56	1979
41.57	1990
41.58	1971
41.59	1950
41.6	1901
41.61	1942
41.62	1930
41.63	1867
41.64	1892
41.65	1923
41.66	1957
41.67	1947
41.68	1932
41.69	1967
41.7	1932
41.71	1893
41.72	1900
41.73	1920
41.74	1884
41.75	1901
41.76	1898
41.77	1915
41.78	1925
41.79	1884
41.8	1936
41.81	1927
41.82	1935
41.83	1941
41.84	1895
41.85	1907
41.86	1981
41.87	1949
41.88	1923
41.89	1887
41.9	1890
41.91	1944
41.92	1892
41.93	1945
41.94	1877
41.95	1863
41.96	1868
41.97	1908
41.98	1912
41.99	1919
42.0	1934
42.01	1893
42.02	1904
42.03	1901
42.04	1870
42.05	1869
42.06	1879
42.07	1901
42.08	1860
42.09	1892
42.1	1945
42.11	1940
42.12	1923
42.13	1874
42.14	1904
42.15	1879
42.16	1865
42.17	1846
42.18	1849
42.19	1898
42.2	1885
42.21	1902
42.22	1859
42.23	1906
42.24	1957
42.25	1924
42.26	1879
42.27	1923
42.28	1946
42.29	1864
42.3	1903
42.31	1905
42.32	1939
42.33	1922
42.34	1922
42.35	1888
42.36	1904
42.37	1921
42.38	1891
42.39	1874
42.4	1907
42.41	1889
42.42	1891
42.43	1921
42.44	1899
42.45	1867
42.46	1872
42.47	1886
42.48	1857
42.49	1821
42.5	1830
42.51	1809
42.52	1869
42.53	1855
42.54	1812
42.55	1862
42.56	1833
42.57	1871
42.58	1880
42.59	1846
42.6	1822
42.61	1827
42.62	1837
42.63	1844
42.64	1848
42.65	1833
42.66	1854
42.67	1859
42.68	1845
42.69	1818
42.7	1808
42.71	1806
42.72	1781
42.73	1842
42.74	1838
42.75	1822
42.76	1793
42.77	1834
42.78	1824
42.79	1894
42.8	1859
42.81	1853
42.82	1814
42.83	1852
42.84	1868
42.85	1871
42.86	1836
42.87	1829
42.88	1814
42.89	1824
42.9	1862
42.91	1859
42.92	1857
42.93	1813
42.94	1848
42.95	1852
42.96	1819
42.97	1785
42.98	1780
42.99	1859
43.0	1862
43.01	1812
43.02	1823
43.03	1819
43.04	1780
43.05	1778
43.06	1838
43.07	1851
43.08	1849
43.09	1830
43.1	1764
43.11	1793
43.12	1820
43.13	1817
43.14	1812
43.15	1780
43.16	1772
43.17	1809
43.18	1761
43.19	1810
43.2	1805
43.21	1807
43.22	1770
43.23	1783
43.24	1768
43.25	1777
43.26	1795
43.27	1754
43.28	1797
43.29	1818
43.3	1795
43.31	1789
43.32	1787
43.33	1808
43.34	1816
43.35	1826
43.36	1818
43.37	1809
43.38	1799
43.39	1733
43.4	1781
43.41	1789
43.42	1780
43.43	1803
43.44	1748
43.45	1778
43.46	1818
43.47	1831
43.48	1792
43.49	1760
43.5	1760
43.51	1778
43.52	1819
43.53	1781
43.54	1751
43.55	1805
43.56	1768
43.57	1773
43.58	1770
43.59	1752
43.6	1732
43.61	1743
43.62	1766
43.63	1731
43.64	1715
43.65	1737
43.66	1734
43.67	1711
43.68	1753
43.69	1772
43.7	1766
43.71	1760
43.72	1770
43.73	1754
43.74	1776
43.75	1739
43.76	1706
43.77	1708
43.78	1682
43.79	1714
43.8	1756
43.81	1778
43.82	1760
43.83	1808
43.84	1794
43.85	1748
43.86	1750
43.87	1791
43.88	1791
43.89	1745
43.9	1732
43.91	1732
43.92	1774
43.93	1783
43.94	1762
43.95	1732
43.96	1777
43.97	1793
43.98	1723
43.99	1760
44.0	1755
44.01	1770
44.02	1797
44.03	1766
44.04	1746
44.05	1707
44.06	1706
44.07	1721
44.08	1752
44.09	1740
44.1	1698
44.11	1710
44.12	1743
44.13	1707
44.14	1704
44.15	1708
44.16	1687
44.17	1684
44.18	1689
44.19	1705
44.2	1712
44.21	1721
44.22	1721
44.23	1718
44.24	1748
44.25	1759
44.26	1697
44.27	1721
44.28	1729
44.29	1761
44.3	1727
44.31	1690
44.32	1692
44.33	1723
44.34	1727
44.35	1695
44.36	1709
44.37	1699
44.38	1638
44.39	1641
44.4	1706
44.41	1698
44.42	1720
44.43	1725
44.44	1698
44.45	1727
44.46	1736
44.47	1729
44.48	1745
44.49	1718
44.5	1692
44.51	1680
44.52	1691
44.53	1679
44.54	1681
44.55	1685
44.56	1688
44.57	1654
44.58	1667
44.59	1695
44.6	1647
44.61	1649
44.62	1665
44.63	1666
44.64	1683
44.65	1677
44.66	1723
44.67	1685
44.68	1655
44.69	1641
44.7	1670
44.71	1656
44.72	1640
44.73	1656
44.74	1665
44.75	1680
44.76	1673
44.77	1733
44.78	1716
44.79	1660
44.8	1695
44.81	1709
44.82	1687
44.83	1709
44.84	1724
44.85	1675
44.86	1683
44.87	1689
44.88	1691
44.89	1663
44.9	1650
44.91	1693
44.92	1703
44.93	1661
44.94	1658
44.95	1670
44.96	1693
44.97	1693
44.98	1699
44.99	1692
45.0	1663
45.01	1652
45.02	1674
45.03	1694
45.04	1662
45.05	1678
45.06	1663
45.07	1651
45.08	1658
45.09	1672
45.1	1628
45.11	1658
45.12	1670
45.13	1651
45.14	1631
45.15	1646
45.16	1672
45.17	1636
45.18	1664
45.19	1704
45.2	1735
45.21	1691
45.22	1666
45.23	1682
45.24	1660
45.25	1664
45.26	1696
45.27	1714
45.28	1679
45.29	1630
45.3	1640
45.31	1642
45.32	1686
45.33	1657
45.34	1661
45.35	1662
45.36	1668
45.37	1678
45.38	1666
45.39	1684
45.4	1682
45.41	1694
45.42	1698
45.43	1702
45.44	1701
45.45	1706
45.46	1670
45.47	1650
45.48	1680
45.49	1713
45.5	1699
45.51	1702
45.52	1653
45.53	1605
45.54	1602
45.55	1629
45.56	1653
45.57	1704
45.58	1697
45.59	1649
45.6	1594
45.61	1604
45.62	1629
45.63	1642
45.64	1616
45.65	1659
45.66	1668
45.67	1644
45.68	1633
45.69	1672
45.7	1652
45.71	1615
45.72	1578
45.73	1612
45.74	1679
45.75	1674
45.76	1634
45.77	1637
45.78	1657
45.79	1675
45.8	1668
45.81	1653
45.82	1629
45.83	1629
45.84	1659
45.85	1664
45.86	1648
45.87	1656
45.88	1654
45.89	1659
45.9	1637
45.91	1607
45.92	1634
45.93	1671
45.94	1666
45.95	1662
45.96	1644
45.97	1628
45.98	1666
45.99	1712
46.0	1722
46.01	1691
46.02	1633
46.03	1629
46.04	1634
46.05	1615
46.06	1646
46.07	1678
46.08	1689
46.09	1694
46.1	1681
46.11	1649
46.12	1612
46.13	1623
46.14	1634
46.15	1667
46.16	1661
46.17	1675
46.18	1688
46.19	1681
46.2	1665
46.21	1655
46.22	1673
46.23	1649
46.24	1638
46.25	1649
46.26	1643
46.27	1625
46.28	1611
46.29	1638
46.3	1636
46.31	1635
46.32	1676
46.33	1644
46.34	1644
46.35	1660
46.36	1684
46.37	1687
46.38	1653
46.39	1625
46.4	1620
46.41	1660
46.42	1668
46.43	1636
46.44	1602
46.45	1598
46.46	1647
46.47	1652
46.48	1635
46.49	1626
46.5	1659
46.51	1666
46.52	1647
46.53	1634
46.54	1628
46.55	1672
46.56	1716
46.57	1716
46.58	1666
46.59	1607
46.6	1580
46.61	1627
46.62	1633
46.63	1669
46.64	1660
46.65	1637
46.66	1639
46.67	1630
46.68	1611
46.69	1622
46.7	1657
46.71	1690
46.72	1658
46.73	1632
46.74	1639
46.75	1668
46.76	1657
46.77	1649
46.78	1632
46.79	1647
46.8	1664
46.81	1635
46.82	1641
46.83	1671
46.84	1640
46.85	1628
46.86	1674
46.87	1706
46.88	1694
46.89	1678
46.9	1703
46.91	1713
46.92	1684
46.93	1690
46.94	1666
46.95	1664
46.96	1699
46.97	1658
46.98	1633
46.99	1649
47.0	1692
47.01	1696
47.02	1695
47.03	1681
47.04	1692
47.05	1668
47.06	1656
47.07	1657
47.08	1696
47.09	1708
47.1	1692
47.11	1692
47.12	1677
47.13	1694
47.14	1686
47.15	1680
47.16	1700
47.17	1702
47.18	1656
47.19	1679
47.2	1730
47.21	1729
47.22	1725
47.23	1703
47.24	1686
47.25	1698
47.26	1687
47.27	1692
47.28	1747
47.29	1770
47.3	1751
47.31	1744
47.32	1705
47.33	1721
47.34	1752
47.35	1744
47.36	1758
47.37	1787
47.38	1796
47.39	1767
47.4	1799
47.41	1809
47.42	1802
47.43	1791
47.44	1806
47.45	1847
47.46	1825
47.47	1810
47.48	1822
47.49	1845
47.5	1875
47.51	1889
47.52	1898
47.53	1898
47.54	1932
47.55	1926
47.56	1904
47.57	1906
47.58	1955
47.59	1998
47.6	1993
47.61	1945
47.62	1944
47.63	2026
47.64	2049
47.65	2020
47.66	2067
47.67	2092
47.68	2106
47.69	2098
47.7	2115
47.71	2167
47.72	2218
47.73	2256
47.74	2256
47.75	2280
47.76	2309
47.77	2371
47.78	2390
47.79	2390
47.8	2436
47.81	2404
47.82	2366
47.83	2424
47.84	2484
47.85	2528
47.86	2536
47.87	2526
47.88	2578
47.89	2630
47.9	2666
47.91	2695
47.92	2705
47.93	2702
47.94	2712
47.95	2736
47.96	2734
47.97	2715
47.98	2717
47.99	2768
48.0	2839
48.01	2828
48.02	2797
48.03	2815
48.04	2832
48.05	2841
48.06	2839
48.07	2865
48.08	2894
48.09	2902
48.1	2885
48.11	2835
48.12	2788
48.13	2800
48.14	2821
48.15	2826
48.16	2802
48.17	2755
48.18	2721
48.19	2706
48.2	2680
48.21	2627
48.22	2635
48.23	2610
48.24	2586
48.25	2594
48.26	2554
48.27	2523
48.28	2525
48.29	2451
48.3	2428
48.31	2449
48.32	2439
48.33	2383
48.34	2357
48.35	2323
48.36	2267
48.37	2227
48.38	2211
48.39	2219
48.4	2204
48.41	2166
48.42	2119
48.43	2090
48.44	2093
48.45	2082
48.46	2082
48.47	2058
48.48	2010
48.49	1971
48.5	1967
48.51	1986
48.52	1963
48.53	1959
48.54	1939
48.55	1905
48.56	1892
48.57	1868
48.58	1841
48.59	1831
48.6	1815
48.61	1793
48.62	1798
48.63	1827
48.64	1861
48.65	1865
48.66	1802
48.67	1759
48.68	1786
48.69	1794
48.7	1773
48.71	1763
48.72	1764
48.73	1727
48.74	1694
48.75	1687
48.76	1713
48.77	1708
48.78	1707
48.79	1695
48.8	1677
48.81	1665
48.82	1653
48.83	1657
48.84	1640
48.85	1668
48.86	1646
48.87	1620
48.88	1664
48.89	1680
48.9	1702
48.91	1670
48.92	1635
48.93	1627
48.94	1637
48.95	1650
48.96	1634
48.97	1605
48.98	1589
48.99	1579
49.0	1599
49.01	1624
49.02	1614
49.03	1591
49.04	1586
49.05	1593
49.06	1589
49.07	1582
49.08	1589
49.09	1589
49.1	1601
49.11	1594
49.12	1598
49.13	1627
49.14	1628
49.15	1624
49.16	1598
49.17	1545
49.18	1515
49.19	1538
49.2	1572
49.21	1590
49.22	1586
49.23	1552
49.24	1532
49.25	1538
49.26	1535
49.27	1562
49.28	1583
49.29	1558
49.3	1515
49.31	1507
49.32	1517
49.33	1519
49.34	1524
49.35	1519
49.36	1509
49.37	1545
49.38	1550
49.39	1509
49.4	1501
49.41	1521
49.42	1578
49.43	1587
49.44	1527
49.45	1501
49.46	1512
49.47	1538
49.48	1544
49.49	1516
49.5	1502
49.51	1505
49.52	1486
49.53	1468
49.54	1511
49.55	1521
49.56	1503
49.57	1506
49.58	1533
49.59	1537
49.6	1502
49.61	1516
49.62	1529
49.63	1508
49.64	1485
49.65	1486
49.66	1518
49.67	1525
49.68	1515
49.69	1505
49.7	1486
49.71	1493
49.72	1487
49.73	1456
49.74	1462
49.75	1452
49.76	1447
49.77	1484
49.78	1506
49.79	1511
49.8	1516
49.81	1493
49.82	1508
49.83	1518
49.84	1485
49.85	1493
49.86	1508
49.87	1457
49.88	1416
49.89	1471
49.9	1514
49.91	1501
49.92	1450
49.93	1423
49.94	1440
49.95	1466
49.96	1475
49.97	1471
49.98	1487
49.99	1481
50.0	1468
50.01	1455
50.02	1440
50.03	1462
50.04	1497
50.05	1499
50.06	1469
50.07	1430
50.08	1432
50.09	1479
50.1	1487
50.11	1470
50.12	1474
50.13	1470
50.14	1437
50.15	1427
50.16	1451
50.17	1441
50.18	1413
50.19	1435
50.2	1458
50.21	1438
50.22	1414
50.23	1413
50.24	1430
50.25	1460
50.26	1479
50.27	1463
50.28	1455
50.29	1455
50.3	1473
50.31	1491
50.32	1484
50.33	1467
50.34	1425
50.35	1423
50.36	1432
50.37	1411
50.38	1413
50.39	1430
50.4	1454
50.41	1455
50.42	1418
50.43	1396
50.44	1400
50.45	1421
50.46	1470
50.47	1448
50.48	1415
50.49	1437
50.5	1432
50.51	1441
50.52	1479
50.53	1474
50.54	1453
50.55	1434
50.56	1447
50.57	1464
50.58	1443
50.59	1410
50.6	1399
50.61	1410
50.62	1391
50.63	1382
50.64	1415
50.65	1438
50.66	1444
50.67	1430
50.68	1411
50.69	1405
50.7	1409
50.71	1449
50.72	1469
50.73	1436
50.74	1410
50.75	1390
50.76	1398
50.77	1413
50.78	1414
50.79	1419
50.8	1402
50.81	1385
50.82	1377
50.83	1391
50.84	1395
50.85	1385
50.86	1407
50.87	1428
50.88	1415
50.89	1398
50.9	1385
50.91	1374
50.92	1390
50.93	1419
50.94	1428
50.95	1402
50.96	1357
50.97	1357
50.98	1380
50.99	1378
51.0	1385
51.01	1386
51.02	1368
51.03	1386
51.04	1400
51.05	1403
51.06	1395
51.07	1362
51.08	1362
51.09	1386
51.1	1395
51.11	1400
51.12	1395
51.13	1393
51.14	1427
51.15	1435
51.16	1398
51.17	1393
51.18	1400
51.19	1404
51.2	1414
51.21	1397
51.22	1396
51.23	1408
51.24	1390
51.25	1361
51.26	1345
51.27	1357
51.28	1363
51.29	1372
51.3	1380
51.31	1365
51.32	1368
51.33	1380
51.34	1383
51.35	1392
51.36	1388
51.37	1384
51.38	1369
51.39	1336
51.4	1348
51.41	1387
51.42	1383
51.43	1344
51.44	1338
51.45	1358
51.46	1371
51.47	1378
51.48	1384
51.49	1361
51.5	1328
51.51	1324
51.52	1348
51.53	1370
51.54	1378
51.55	1370
51.56	1343
51.57	1345
51.58	1361
51.59	1377
51.6	1389
51.61	1392
51.62	1369
51.63	1352
51.64	1370
51.65	1370
51.66	1355
51.67	1365
51.68	1347
51.69	1321
51.7	1354
51.71	1386
51.72	1385
51.73	1365
51.74	1341
51.75	1347
51.76	1352
51.77	1348
51.78	1359
51.79	1372
51.8	1356
51.81	1330
51.82	1319
51.83	1359
51.84	1376
51.85	1342
51.86	1349
51.87	1340
51.88	1335
51.89	1343
51.9	1342
51.91	1381
51.92	1417
51.93	1410
51.94	1407
51.95	1395
51.96	1351
51.97	1351
51.98	1366
51.99	1358
52.0	1356
52.01	1375
52.02	1374
52.03	1347
52.04	1339
52.05	1336
52.06	1340
52.07	1347
52.08	1341
52.09	1337
52.1	1324
52.11	1328
52.12	1349
52.13	1355
52.14	1364
52.15	1368
52.16	1347
52.17	1328
52.18	1346
52.19	1368
52.2	1384
52.21	1382
52.22	1366
52.23	1361
52.24	1368
52.25	1363
52.26	1335
52.27	1299
52.28	1299
52.29	1332
52.3	1337
52.31	1321
52.32	1336
52.33	1359
52.34	1349
52.35	1318
52.36	1326
52.37	1347
52.38	1344
52.39	1339
52.4	1344
52.41	1345
52.42	1346
52.43	1352
52.44	1365
52.45	1377
52.46	1383
52.47	1364
52.48	1349
52.49	1353
52.5	1376
52.51	1357
52.52	1323
52.53	1322
52.54	1329
52.55	1340
52.56	1354
52.57	1350
52.58	1336
52.59	1331
52.6	1357
52.61	1355
52.62	1323
52.63	1321
52.64	1326
52.65	1311
52.66	1324
52.67	1374
52.68	1402
52.69	1421
52.7	1409
52.71	1385
52.72	1398
52.73	1404
52.74	1376
52.75	1365
52.76	1375
52.77	1374
52.78	1369
52.79	1374
52.8	1374
52.81	1393
52.82	1383
52.83	1371
52.84	1366
52.85	1375
52.86	1394
52.87	1385
52.88	1371
52.89	1390
52.9	1408
52.91	1407
52.92	1403
52.93	1372
52.94	1375
52.95	1388
52.96	1371
52.97	1355
52.98	1371
52.99	1414
53.0	1418
53.01	1394
53.02	1391
53.03	1387
53.04	1419
53.05	1453
53.06	1432
53.07	1408
53.08	1432
53.09	1438
53.1	1425
53.11	1412
53.12	1416
53.13	1450
53.14	1446
53.15	1412
53.16	1424
53.17	1444
53.18	1447
53.19	1464
53.2	1495
53.21	1486
53.22	1454
53.23	1459
53.24	1481
53.25	1458
53.26	1432
53.27	1472
53.28	1511
53.29	1520
53.3	1520
53.31	1516
53.32	1517
53.33	1522
53.34	1539
53.35	1542
53.36	1521
53.37	1528
53.38	1540
53.39	1555
53.4	1581
53.41	1596
53.42	1584
53.43	1579
53.44	1602
53.45	1675
53.46	1722
53.47	1718
53.48	1676
53.49	1649
53.5	1659
53.51	1670
53.52	1682
53.53	1687
53.54	1675
53.55	1689
53.56	1705
53.57	1713
53.58	1746
53.59	1755
53.6	1801
53.61	1849
53.62	1828
53.63	1794
53.64	1784
53.65	1764
53.66	1774
53.67	1788
53.68	1785
53.69	1805
53.7	1821
53.71	1849
53.72	1882
53.73	1901
53.74	1932
53.75	1956
53.76	1938
53.77	1953
53.78	1965
53.79	1937
53.8	1959
53.81	1992
53.82	1981
53.83	1982
53.84	2017
53.85	2044
53.86	2048
53.87	2045
53.88	2023
53.89	1995
53.9	1987
53.91	2005
53.92	2019
53.93	2044
53.94	2068
53.95	2058
53.96	2046
53.97	2056
53.98	2069
53.99	2024
54.0	2034
54.01	2045
54.02	2024
54.03	2051
54.04	2091
54.05	2105
54.06	2080
54.07	2036
54.08	2011
54.09	2030
54.1	2035
54.11	2021
54.12	2026
54.13	2036
54.14	1976
54.15	1968
54.16	1987
54.17	1961
54.18	1953
54.19	1956
54.2	1932
54.21	1940
54.22	1972
54.23	1962
54.24	1948
54.25	1949
54.26	1911
54.27	1906
54.28	1905
54.29	1905
54.3	1906
54.31	1944
54.32	1947
54.33	1898
54.34	1876
54.35	1846
54.36	1808
54.37	1784
54.38	1789
54.39	1829
54.4	1831
54.41	1778
54.42	1757
54.43	1763
54.44	1712
54.45	1699
54.46	1747
54.47	1772
54.48	1787
54.49	1794
54.5	1759
54.51	1750
54.52	1740
54.53	1739
54.54	1755
54.55	1781
54.56	1801
54.57	1774
54.58	1743
54.59	1763
54.6	1796
54.61	1793
54.62	1767
54.63	1791
54.64	1833
54.65	1837
54.66	1815
54.67	1802
54.68	1829
54.69	1834
54.7	1807
54.71	1824
54.72	1844
54.73	1835
54.74	1826
54.75	1837
54.76	1871
54.77	1896
54.78	1879
54.79	1871
54.8	1885
54.81	1839
54.82	1859
54.83	1893
54.84	1910
54.85	1928
54.86	1933
54.87	1973
54.88	1992
54.89	1961
54.9	1945
54.91	1967
54.92	1993
54.93	2008
54.94	2040
54.95	2020
54.96	2018
54.97	2047
54.98	2095
54.99	2098
55.0	2063
55.01	2037
55.02	2051
55.03	2060
55.04	2077
55.05	2111
55.06	2100
55.07	2063
55.08	2007
55.09	2009
55.1	2042
55.11	2063
55.12	2027
55.13	2040
55.14	2065
55.15	2046
55.16	2037
55.17	2013
55.18	2003
55.19	2026
55.2	2019
55.21	2027
55.22	2044
55.23	2020
55.24	1952
55.25	1902
55.26	1909
55.27	1923
55.28	1918
55.29	1912
55.3	1864
55.31	1897
55.32	1928
55.33	1911
55.34	1833
55.35	1808
55.36	1813
55.37	1824
55.38	1815
55.39	1802
55.4	1763
55.41	1744
55.42	1721
55.43	1685
55.44	1666
55.45	1643
55.46	1656
55.47	1663
55.48	1628
55.49	1602
55.5	1615
55.51	1604
55.52	1569
55.53	1527
55.54	1548
55.55	1539
55.56	1537
55.57	1533
55.58	1542
55.59	1561
55.6	1557
55.61	1517
55.62	1468
55.63	1473
55.64	1490
55.65	1496
55.66	1474
55.67	1461
55.68	1453
55.69	1449
55.7	1464
55.71	1405
55.72	1376
55.73	1396
55.74	1420
55.75	1464
55.76	1462
55.77	1436
55.78	1392
55.79	1371
55.8	1404
55.81	1423
55.82	1416
55.83	1400
55.84	1380
55.85	1364
55.86	1338
55.87	1356
55.88	1340
55.89	1308
55.9	1289
55.91	1281
55.92	1330
55.93	1337
55.94	1352
55.95	1355
55.96	1349
55.97	1323
55.98	1299
55.99	1286
56.0	1306
56.01	1325
56.02	1316
56.03	1299
56.04	1298
56.05	1298
56.06	1299
56.07	1287
56.08	1268
56.09	1281
56.1	1287
56.11	1266
56.12	1268
56.13	1285
56.14	1288
56.15	1272
56.16	1262
56.17	1268
56.18	1255
56.19	1243
56.2	1270
56.21	1297
56.22	1292
56.23	1301
56.24	1302
56.25	1263
56.26	1267
56.27	1291
56.28	1282
56.29	1278
56.3	1273
56.31	1260
56.32	1267
56.33	1287
56.34	1270
56.35	1279
56.36	1265
56.37	1248
56.38	1254
56.39	1276
56.4	1292
56.41	1276
56.42	1264
56.43	1261
56.44	1256
56.45	1269
56.46	1272
56.47	1263
56.48	1243
56.49	1257
56.5	1254
56.51	1199
56.52	1223
56.53	1258
56.54	1266
56.55	1246
56.56	1234
56.57	1240
56.58	1237
56.59	1223
56.6	1229
56.61	1265
56.62	1255
56.63	1258
56.64	1257
56.65	1256
56.66	1257
56.67	1239
56.68	1221
56.69	1210
56.7	1217
56.71	1203
56.72	1224
56.73	1268
56.74	1248
56.75	1196
56.76	1216
56.77	1226
56.78	1228
56.79	1235
56.8	1239
56.81	1236
56.82	1229
56.83	1214
56.84	1221
56.85	1253
56.86	1258
56.87	1238
56.88	1250
56.89	1226
56.9	1192
56.91	1211
56.92	1206
56.93	1214
56.94	1238
56.95	1202
56.96	1150
56.97	1202
56.98	1205
56.99	1190
57.0	1198
57.01	1205
57.02	1178
57.03	1200
57.04	1205
57.05	1193
57.06	1201
57.07	1221
57.08	1190
57.09	1173
57.1	1164
57.11	1148
57.12	1192
57.13	1226
57.14	1202
57.15	1249
57.16	1205
57.17	1176
57.18	1217
57.19	1218
57.2	1209
57.21	1230
57.22	1231
57.23	1207
57.24	1191
57.25	1170
57.26	1172
57.27	1160
57.28	1179
57.29	1194
57.3	1193
57.31	1172
57.32	1150
57.33	1167
57.34	1168
57.35	1150
57.36	1176
57.37	1148
57.38	1137
57.39	1152
57.4	1164
57.41	1178
57.42	1179
57.43	1135
57.44	1112
57.45	1168
57.46	1167
57.47	1166
57.48	1186
57.49	1214
57.5	1189
57.51	1170
57.52	1181
57.53	1182
57.54	1148
57.55	1163
57.56	1183
57.57	1175
57.58	1204
57.59	1167
57.6	1176
57.61	1158
57.62	1153
57.63	1156
57.64	1178
57.65	1162
57.66	1170
57.67	1158
57.68	1156
57.69	1155
57.7	1141
57.71	1158
57.72	1177
57.73	1145
57.74	1120
57.75	1137
57.76	1174
57.77	1159
57.78	1138
57.79	1144
57.8	1113
57.81	1118
57.82	1156
57.83	1168
57.84	1152
57.85	1141
57.86	1127
57.87	1156
57.88	1144
57.89	1154
57.9	1151
57.91	1129
57.92	1146
57.93	1178
57.94	1150
57.95	1165
57.96	1176
57.97	1124
57.98	1144
57.99	1154
58.0	1155
58.01	1140
58.02	1128
58.03	1170
58.04	1191
58.05	1161
58.06	1141
58.07	1155
58.08	1134
58.09	1125
58.1	1124
58.11	1116
58.12	1145
58.13	1151
58.14	1129
58.15	1150
58.16	1147
58.17	1137
58.18	1153
58.19	1167
58.2	1152
58.21	1157
58.22	1173
58.23	1167
58.24	1165
58.25	1168
58.26	1127
58.27	1145
58.28	1139
58.29	1159
58.3	1157
58.31	1142
58.32	1136
58.33	1111
58.34	1077
58.35	1097
58.36	1150
58.37	1161
58.38	1126
58.39	1114
58.4	1117
58.41	1122
58.42	1111
58.43	1124
58.44	1113
58.45	1118
58.46	1097
58.47	1116
58.48	1100
58.49	1146
58.5	1146
58.51	1099
58.52	1107
58.53	1119
58.54	1133
58.55	1140
58.56	1127
58.57	1127
58.58	1121
58.59	1123
58.6	1139
58.61	1150
58.62	1127
58.63	1101
58.64	1096
58.65	1117
58.66	1131
58.67	1131
58.68	1111
58.69	1112
58.7	1074
58.71	1089
58.72	1123
58.73	1146
58.74	1145
58.75	1131
58.76	1099
58.77	1089
58.78	1117
58.79	1127
58.8	1110
58.81	1117
58.82	1129
58.83	1141
58.84	1121
58.85	1130
58.86	1158
58.87	1146
58.88	1127
58.89	1117
58.9	1158
58.91	1119
58.92	1080
58.93	1099
58.94	1084
58.95	1090
58.96	1107
58.97	1124
58.98	1122
58.99	1123
59.0	1132
59.01	1146
59.02	1125
59.03	1074
59.04	1094
59.05	1118
59.06	1094
59.07	1079
59.08	1092
59.09	1097
59.1	1129
59.11	1115
59.12	1071
59.13	1074
59.14	1100
59.15	1112
59.16	1094
59.17	1083
59.18	1114
59.19	1124
59.2	1126
59.21	1113
59.22	1103
59.23	1116
59.24	1126
59.25	1105
59.26	1080
59.27	1071
59.28	1093
59.29	1091
59.3	1112
59.31	1138
59.32	1097
59.33	1113
59.34	1125
59.35	1116
59.36	1128
59.37	1138
59.38	1122
59.39	1075
59.4	1070
59.41	1093
59.42	1086
59.43	1064
59.44	1053
59.45	1063
59.46	1073
59.47	1082
59.48	1112
59.49	1115
59.5	1082
59.51	1083
59.52	1056
59.53	1056
59.54	1066
59.55	1074
59.56	1053
59.57	1053
59.58	1095
59.59	1083
59.6	1082
59.61	1092
59.62	1065
59.63	1050
59.64	1075
59.65	1094
59.66	1092
59.67	1062
59.68	1060
59.69	1058
59.7	1056
59.71	1064
59.72	1071
59.73	1105
59.74	1076
59.75	1071
59.76	1060
59.77	1071
59.78	1061
59.79	1055
59.8	1066
59.81	1076
59.82	1087
59.83	1101
59.84	1092
59.85	1093
59.86	1078
59.87	1039
59.88	1065
59.89	1090
59.9	1059
59.91	1077
59.92	1078
59.93	1113
59.94	1120
59.95	1087
59.96	1058
59.97	1043
59.98	1025
59.99	1054
60.0	1076
60.01	1055
60.02	1030
60.03	1052
60.04	1040
60.05	1046
60.06	1068
60.07	1069
60.08	1076
60.09	1116
60.1	1105
60.11	1070
60.12	1068
60.13	1072
60.14	1082
60.15	1057
60.16	1054
60.17	1050
60.18	1048
60.19	1068
60.2	1089
60.21	1075
60.22	1078
60.23	1106
60.24	1061
60.25	1051
60.26	1070
60.27	1041
60.28	1049
60.29	1086
60.3	1089
60.31	1060
60.32	1088
60.33	1085
60.34	1077
60.35	1062
60.36	1020
60.37	1068
60.38	1069
60.39	1054
60.4	1075
60.41	1060
60.42	1085
60.43	1080
60.44	1064
60.45	1091
60.46	1077
60.47	1083
60.48	1070
60.49	1079
60.5	1090
60.51	1092
60.52	1079
60.53	1075
60.54	1039
60.55	1058
60.56	1068
60.57	1084
60.58	1064
60.59	1091
60.6	1074
60.61	1053
60.62	1067
60.63	1058
60.64	1054
60.65	1067
60.66	1080
60.67	1085
60.68	1065
60.69	1071
60.7	1082
60.71	1049
60.72	1033
60.73	1052
60.74	1062
60.75	1078
60.76	1100
60.77	1094
60.78	1071
60.79	1064
60.8	1087
60.81	1090
60.82	1092
60.83	1097
60.84	1087
60.85	1057
60.86	1074
60.87	1079
60.88	1092
60.89	1092
60.9	1072
60.91	1084
60.92	1121
60.93	1111
60.94	1083
60.95	1058
60.96	1042
60.97	1058
60.98	1104
60.99	1106
61.0	1062
61.01	1061
61.02	1091
61.03	1097
61.04	1073
61.05	1034
61.06	1065
61.07	1082
61.08	1066
61.09	1086
61.1	1090
61.11	1075
61.12	1055
61.13	1042
61.14	1058
61.15	1078
61.16	1049
61.17	1069
61.18	1096
61.19	1058
61.2	1085
61.21	1059
61.22	1051
61.23	1084
61.24	1098
61.25	1083
61.26	1116
61.27	1103
61.28	1086
61.29	1061
61.3	1064
61.31	1091
61.32	1087
61.33	1085
61.34	1070
61.35	1083
61.36	1086
61.37	1077
61.38	1077
61.39	1083
61.4	1106
61.41	1112
61.42	1113
61.43	1113
61.44	1095
61.45	1108
61.46	1081
61.47	1084
61.48	1096
61.49	1106
61.5	1111
61.51	1111
61.52	1132
61.53	1125
61.54	1116
61.55	1118
61.56	1148
61.57	1161
61.58	1147
61.59	1124
61.6	1151
61.61	1113
61.62	1118
61.63	1119
61.64	1112
61.65	1141
61.66	1133
61.67	1142
61.68	1100
61.69	1109
61.7	1113
61.71	1162
61.72	1168
61.73	1181
61.74	1155
61.75	1168
61.76	1189
61.77	1202
61.78	1222
61.79	1230
61.8	1191
61.81	1151
61.82	1175
61.83	1211
61.84	1241
61.85	1203
61.86	1203
61.87	1232
61.88	1268
61.89	1221
61.9	1198
61.91	1222
61.92	1253
61.93	1259
61.94	1242
61.95	1275
61.96	1244
61.97	1239
61.98	1273
61.99	1238
62.0	1268
62.01	1272
62.02	1287
62.03	1282
62.04	1257
62.05	1289
62.06	1299
62.07	1321
62.08	1290
62.09	1259
62.1	1307
62.11	1363
62.12	1356
62.13	1310
62.14	1318
62.15	1371
62.16	1369
62.17	1356
62.18	1355
62.19	1384
62.2	1423
62.21	1433
62.22	1393
62.23	1376
62.24	1371
62.25	1411
62.26	1394
62.27	1349
62.28	1372
62.29	1449
62.3	1416
62.31	1410
62.32	1445
62.33	1502
62.34	1515
62.35	1465
62.36	1492
62.37	1446
62.38	1454
62.39	1464
62.4	1486
62.41	1501
62.42	1530
62.43	1539
62.44	1528
62.45	1538
62.46	1567
62.47	1560
62.48	1559
62.49	1548
62.5	1551
62.51	1606
62.52	1618
62.53	1604
62.54	1612
62.55	1657
62.56	1612
62.57	1577
62.58	1595
62.59	1598
62.6	1612
62.61	1636
62.62	1636
62.63	1647
62.64	1669
62.65	1666
62.66	1629
62.67	1624
62.68	1656
62.69	1680
62.7	1645
62.71	1680
62.72	1639
62.73	1658
62.74	1647
62.75	1670
62.76	1651
62.77	1649
62.78	1617
62.79	1643
62.8	1659
62.81	1661
62.82	1662
62.83	1655
62.84	1628
62.85	1601
62.86	1569
62.87	1554
62.88	1555
62.89	1592
62.9	1620
62.91	1606
62.92	1583
62.93	1600
62.94	1574
62.95	1521
62.96	1521
62.97	1501
62.98	1478
62.99	1526
63.0	1550
63.01	1494
63.02	1446
63.03	1445
63.04	1466
63.05	1454
63.06	1386
63.07	1385
63.08	1419
63.09	1388
63.1	1388
63.11	1375
63.12	1322
63.13	1354
63.14	1336
63.15	1297
63.16	1277
63.17	1324
63.18	1319
63.19	1311
63.2	1301
63.21	1285
63.22	1273
63.23	1274
63.24	1247
63.25	1235
63.26	1225
63.27	1229
63.28	1277
63.29	1242
63.3	1225
63.31	1206
63.32	1188
63.33	1135
63.34	1170
63.35	1213
63.36	1186
63.37	1200
63.38	1172
63.39	1142
63.4	1133
63.41	1161
63.42	1136
63.43	1082
63.44	1099
63.45	1118
63.46	1125
63.47	1146
63.48	1122
63.49	1114
63.5	1138
63.51	1132
63.52	1103
63.53	1103
63.54	1075
63.55	1099
63.56	1125
63.57	1105
63.58	1082
63.59	1070
63.6	1084
63.61	1069
63.62	1072
63.63	1061
63.64	1077
63.65	1069
63.66	1090
63.67	1094
63.68	1095
63.69	1108
63.7	1081
63.71	1069
63.72	1065
63.73	1067
63.74	1078
63.75	1052
63.76	1065
63.77	1042
63.78	1079
63.79	1037
63.8	1086
63.81	1082
63.82	1023
63.83	1049
63.84	1061
63.85	1064
63.86	1046
63.87	1037
63.88	991
63.89	1011
63.9	1035
63.91	1061
63.92	1041
63.93	1033
63.94	1033
63.95	1061
63.96	1048
63.97	994
63.98	1016
63.99	1059
64.0	1017
64.01	995
64.02	988
64.03	995
64.04	1014
64.05	1029
64.06	1065
64.07	1026
64.08	985
64.09	995
64.1	1003
64.11	964
64.12	1010
64.13	993
64.14	993
64.15	1044
64.16	1000
64.17	989
64.18	987
64.19	973
64.2	1021
64.21	1029
64.22	986
64.23	981
64.24	992
64.25	996
64.26	1013
64.27	1032
64.28	1018
64.29	987
64.3	978
64.31	971
64.32	958
64.33	946
64.34	970
64.35	984
64.36	974
64.37	991
64.38	997
64.39	1043
64.4	1012
64.41	960
64.42	999
64.43	988
64.44	987
64.45	969
64.46	991
64.47	988
64.48	977
64.49	967
64.5	990
64.51	1013
64.52	993
64.53	946
64.54	953
64.55	979
64.56	1014
64.57	987
64.58	958
64.59	975
64.6	934
64.61	925
64.62	962
64.63	947
64.64	973
64.65	1003
64.66	943
64.67	960
64.68	959
64.69	968
64.7	940
64.71	964
64.72	994
64.73	980
64.74	968
64.75	939
64.76	945
64.77	976
64.78	996
64.79	975
64.8	958
64.81	955
64.82	970
64.83	967
64.84	983
64.85	963
64.86	967
64.87	983
64.88	953
64.89	931
64.9	953
64.91	970
64.92	997
64.93	989
64.94	994
64.95	967
64.96	929
64.97	917
64.98	938
64.99	976
65.0	979
65.01	929
65.02	947
65.03	947
65.04	953
65.05	919
65.06	941
65.07	978
65.08	966
65.09	919
65.1	932
65.11	970
65.12	966
65.13	950
65.14	936
65.15	923
65.16	956
65.17	957
65.18	951
65.19	922
65.2	947
65.21	965
65.22	945
65.23	961
65.24	987
65.25	968
65.26	915
65.27	965
65.28	971
65.29	946
65.3	975
65.31	980
65.32	953
65.33	958
65.34	983
65.35	930
65.36	907
65.37	958
65.38	1000
65.39	984
65.4	899
65.41	941
65.42	936
65.43	1004
65.44	928
65.45	952
65.46	930
65.47	903
65.48	916
65.49	947
65.5	985
65.51	920
65.52	926
65.53	936
65.54	893
65.55	920
65.56	944
65.57	930
65.58	963
65.59	931
65.6	917
65.61	909
65.62	930
65.63	929
65.64	919
65.65	952
65.66	899
65.67	905
65.68	905
65.69	950
65.7	963
65.71	932
65.72	901
65.73	935
65.74	905
65.75	909
65.76	929
65.77	928
65.78	923
65.79	919
65.8	934
65.81	928
65.82	948
65.83	935
65.84	916
65.85	940
65.86	935
65.87	927
65.88	946
65.89	938
65.9	924
65.91	947
65.92	932
65.93	941
65.94	914
65.95	914
65.96	947
65.97	955
65.98	937
65.99	909
66.0	925
66.01	932
66.02	933
66.03	943
66.04	918
66.05	915
66.06	948
66.07	919
66.08	909
66.09	951
66.1	947
66.11	948
66.12	937
66.13	923
66.14	924
66.15	924
66.16	935
66.17	939
66.18	956
66.19	954
66.2	933
66.21	963
66.22	952
66.23	923
66.24	938
66.25	938
66.26	908
66.27	943
66.28	933
66.29	885
66.3	901
66.31	891
66.32	909
66.33	898
66.34	929
66.35	903
66.36	904
66.37	921
66.38	927
66.39	915
66.4	907
66.41	908
66.42	930
66.43	925
66.44	904
66.45	932
66.46	969
66.47	935
66.48	877
66.49	913
66.5	919
66.51	960
66.52	936
66.53	951
66.54	899
66.55	934
66.56	923
66.57	902
66.58	916
66.59	899
66.6	872
66.61	904
66.62	933
66.63	949
66.64	973
66.65	927
66.66	921
66.67	920
66.68	977
66.69	916
66.7	926
66.71	921
66.72	957
66.73	955
66.74	894
66.75	922
66.76	926
66.77	902
66.78	935
66.79	900
66.8	879
66.81	912
66.82	907
66.83	933
66.84	911
66.85	869
66.86	884
66.87	921
66.88	922
66.89	893
66.9	934
66.91	914
66.92	944
66.93	929
66.94	904
66.95	938
66.96	931
66.97	914
66.98	931
66.99	914
67.0	917
67.01	944
67.02	910
67.03	915
67.04	948
67.05	933
67.06	958
67.07	948
67.08	894
67.09	915
67.1	935
67.11	910
67.12	913
67.13	921
67.14	917
67.15	898
67.16	873
67.17	906
67.18	908
67.19	875
67.2	898
67.21	903
67.22	887
67.23	919
67.24	918
67.25	892
67.26	923
67.27	955
67.28	931
67.29	887
67.3	898
67.31	940
67.32	916
67.33	942
67.34	908
67.35	888
67.36	886
67.37	927
67.38	932
67.39	945
67.4	904
67.41	880
67.42	902
67.43	921
67.44	927
67.45	931
67.46	931
67.47	924
67.48	909
67.49	886
67.5	895
67.51	886
67.52	872
67.53	888
67.54	930
67.55	932
67.56	902
67.57	914
67.58	932
67.59	930
67.6	932
67.61	928
67.62	899
67.63	925
67.64	920
67.65	919
67.66	942
67.67	930
67.68	927
67.69	932
67.7	932
67.71	922
67.72	904
67.73	867
67.74	911
67.75	944
67.76	986
67.77	958
67.78	956
67.79	952
67.8	933
67.81	933
67.82	939
67.83	924
67.84	952
67.85	923
67.86	923
67.87	931
67.88	929
67.89	930
67.9	946
67.91	947
67.92	914
67.93	939
67.94	945
67.95	951
67.96	924
67.97	931
67.98	981
67.99	919
68.0	947
68.01	952
68.02	944
68.03	969
68.04	979
68.05	950
68.06	912
68.07	887
68.08	950
68.09	944
68.1	968
68.11	1014
68.12	981
68.13	962
68.14	946
68.15	967
68.16	1003
68.17	980
68.18	990
68.19	959
68.2	972
68.21	992
68.22	1014
68.23	993
68.24	961
68.25	974
68.26	953
68.27	984
68.28	1012
68.29	995
68.3	1029
68.31	1021
68.32	989
68.33	988
68.34	994
68.35	1039
68.36	1021
68.37	996
68.38	1035
68.39	1037
68.4	1014
68.41	979
68.42	1053
68.43	1050
68.44	1041
68.45	1083
68.46	1083
68.47	1082
68.48	1084
68.49	1029
68.5	1044
68.51	1083
68.52	1080
68.53	1060
68.54	1063
68.55	1036
68.56	1058
68.57	1096
68.58	1078
68.59	1088
68.6	1125
68.61	1117
68.62	1107
68.63	1089
68.64	1089
68.65	1115
68.66	1151
68.67	1146
68.68	1137
68.69	1103
68.7	1104
68.71	1122
68.72	1119
68.73	1164
68.74	1173
68.75	1153
68.76	1097
68.77	1052
68.78	1083
68.79	1089
68.8	1150
68.81	1148
68.82	1146
68.83	1153
68.84	1123
68.85	1111
68.86	1135
68.87	1142
68.88	1150
68.89	1117
68.9	1125
68.91	1157
68.92	1159
68.93	1150
68.94	1148
68.95	1132
68.96	1115
68.97	1135
68.98	1128
68.99	1137
69.0	1145
69.01	1087
69.02	1122
69.03	1100
69.04	1131
69.05	1145
69.06	1167
69.07	1109
69.08	1092
69.09	1082
69.1	1102
69.11	1081
69.12	1041
69.13	1061
69.14	1142
69.15	1123
69.16	1084
69.17	1101
69.18	1094
69.19	1092
69.2	1075
69.21	1083
69.22	1064
69.23	1054
69.24	1054
69.25	1097
69.26	1077
69.27	1037
69.28	1055
69.29	1023
69.3	1015
69.31	1007
69.32	1002
69.33	1031
69.34	1022
69.35	1024
69.36	1035
69.37	994
69.38	985
69.39	1043
69.4	1012
69.41	1041
69.42	1077
69.43	1056
69.44	1023
69.45	1017
69.46	1010
69.47	999
69.48	1013
69.49	1005
69.5	1044
69.51	1004
69.52	998
69.53	1004
69.54	983
69.55	991
69.56	1006
69.57	992
69.58	1010
69.59	1048
69.6	1058
69.61	1032
69.62	1039
69.63	1029
69.64	1008
69.65	984
69.66	987
69.67	1001
69.68	1014
69.69	1020
69.7	1088
69.71	1021
69.72	1026
69.73	1013
69.74	1019
69.75	1063
69.76	1058
69.77	1000
69.78	1015
69.79	1044
69.8	1066
69.81	1061
69.82	1057
69.83	1055
69.84	1003
69.85	977
69.86	967
69.87	1033
69.88	1054
69.89	1089
69.9	1104
69.91	1061
69.92	1036
69.93	1033
69.94	985
69.95	1060
69.96	1087
69.97	1059
69.98	1061
69.99	1071
70.0	1105
70.01	1123
70.02	1139
70.03	1131
70.04	1093
70.05	1097
70.06	1089
70.07	1105
70.08	1103
70.09	1115
70.1	1118
70.11	1113
70.12	1080
70.13	1101
70.14	1106
70.15	1126
70.16	1135
70.17	1117
70.18	1162
70.19	1205
70.2	1149
70.21	1102
70.22	1110
70.23	1126
70.24	1132
70.25	1138
70.26	1170
70.27	1187
70.28	1143
70.29	1143
70.3	1173
70.31	1148
70.32	1110
70.33	1136
70.34	1157
70.35	1153
70.36	1093
70.37	1113
70.38	1127
70.39	1128
70.4	1105
70.41	1114
70.42	1115
70.43	1096
70.44	1104
70.45	1124
70.46	1091
70.47	1070
70.48	1104
70.49	1140
70.5	1143
70.51	1104
70.52	1101
70.53	1118
70.54	1133
70.55	1133
70.56	1114
70.57	1103
70.58	1051
70.59	1072
70.6	1053
70.61	1070
70.62	1058
70.63	1046
70.64	1071
70.65	1075
70.66	1030
70.67	1024
70.68	1054
70.69	1040
70.7	1025
70.71	1023
70.72	1054
70.73	1024
70.74	965
70.75	1009
70.76	977
70.77	967
70.78	1012
70.79	991
70.8	1014
70.81	974
70.82	973
70.83	1005
70.84	981
70.85	958
70.86	938
70.87	933
70.88	950
70.89	923
70.9	905
70.91	979
70.92	953
70.93	936
70.94	942
70.95	890
70.96	920
70.97	927
70.98	877
70.99	919
71.0	965
71.01	935
71.02	895
71.03	916
71.04	895
71.05	880
71.06	884
71.07	908
71.08	911
71.09	889
71.1	902
71.11	900
71.12	891
71.13	882
71.14	912
71.15	954
71.16	921
71.17	907
71.18	862
71.19	855
71.2	870
71.21	849
71.22	859
71.23	854
71.24	837
71.25	839
71.26	867
71.27	824
71.28	836
71.29	892
71.3	907
71.31	878
71.32	857
71.33	847
71.34	830
71.35	835
71.36	853
71.37	841
71.38	840
71.39	804
71.4	815
71.41	855
71.42	868
71.43	873
71.44	873
71.45	850
71.46	860
71.47	877
71.48	844
71.49	850
71.5	856
71.51	847
71.52	850
71.53	854
71.54	815
71.55	827
71.56	836
71.57	889
71.58	859
71.59	832
71.6	849
71.61	857
71.62	875
71.63	837
71.64	828
71.65	809
71.66	840
71.67	830
71.68	808
71.69	802
71.7	815
71.71	817
71.72	846
71.73	842
71.74	824
71.75	858
71.76	834
71.77	824
71.78	817
71.79	853
71.8	873
71.81	850
71.82	810
71.83	834
71.84	840
71.85	816
71.86	835
71.87	838
71.88	825
71.89	818
71.9	828
71.91	836
71.92	841
71.93	846
71.94	808
71.95	784
71.96	814
71.97	812
71.98	816
71.99	799
72.0	803
72.01	820
72.02	808
72.03	810
72.04	800
72.05	812
72.06	823
72.07	799
72.08	806
72.09	847
72.1	827
72.11	823
72.12	820
72.13	817
72.14	803
72.15	819
72.16	814
72.17	825
72.18	807
72.19	812
72.2	853
72.21	844
72.22	811
72.23	828
72.24	836
72.25	855
72.26	844
72.27	795
72.28	796
72.29	793
72.3	803
72.31	803
72.32	800
72.33	812
72.34	812
72.35	806
72.36	827
72.37	802
72.38	814
72.39	822
72.4	832
72.41	828
72.42	805
72.43	800
72.44	823
72.45	828
72.46	830
72.47	792
72.48	782
72.49	812
72.5	836
72.51	822
72.52	786
72.53	760
72.54	786
72.55	779
72.56	787
72.57	782
72.58	818
72.59	817
72.6	810
72.61	788
72.62	822
72.63	823
72.64	803
72.65	794
72.66	780
72.67	793
72.68	806
72.69	801
72.7	788
72.71	780
72.72	796
72.73	804
72.74	810
72.75	801
72.76	819
72.77	804
72.78	835
72.79	835
72.8	837
72.81	831
72.82	813
72.83	804
72.84	824
72.85	859
72.86	804
72.87	821
72.88	836
72.89	858
72.9	819
72.91	828
72.92	821
72.93	816
72.94	799
72.95	765
72.96	755
72.97	807
72.98	833
72.99	857
73.0	853
73.01	800
73.02	778
73.03	814
73.04	812
73.05	851
73.06	800
73.07	815
73.08	802
73.09	786
73.1	791
73.11	831
73.12	817
73.13	826
73.14	840
73.15	805
73.16	811
73.17	829
73.18	841
73.19	794
73.2	768
73.21	774
73.22	813
73.23	819
73.24	817
73.25	815
73.26	849
73.27	805
73.28	829
73.29	831
73.3	824
73.31	842
73.32	822
73.33	839
73.34	836
73.35	819
73.36	823
73.37	804
73.38	809
73.39	810
73.4	802
73.41	812
73.42	827
73.43	836
73.44	833
73.45	820
73.46	856
73.47	870
73.48	849
73.49	853
73.5	866
73.51	848
73.52	835
73.53	832
73.54	825
73.55	837
73.56	851
73.57	807
73.58	811
73.59	830
73.6	826
73.61	789
73.62	788
73.63	809
73.64	813
73.65	836
73.66	856
73.67	843
73.68	837
73.69	841
73.7	829
73.71	850
73.72	834
73.73	838
73.74	830
73.75	841
73.76	852
73.77	851
73.78	850
73.79	861
73.8	834
73.81	819
73.82	829
73.83	835
73.84	835
73.85	842
73.86	845
73.87	830
73.88	846
73.89	830
73.9	816
73.91	844
73.92	852
73.93	819
73.94	809
73.95	854
73.96	835
73.97	833
73.98	848
73.99	853
74.0	864
74.01	865
74.02	859
74.03	828
74.04	845
74.05	819
74.06	851
74.07	905
74.08	914
74.09	908
74.1	867
74.11	869
74.12	864
74.13	823
74.14	856
74.15	892
74.16	893
74.17	861
74.18	854
74.19	859
74.2	857
74.21	852
74.22	872
74.23	891
74.24	876
74.25	857
74.26	857
74.27	885
74.28	922
74.29	887
74.3	898
74.31	885
74.32	884
74.33	918
74.34	915
74.35	923
74.36	912
74.37	885
74.38	889
74.39	930
74.4	928
74.41	905
74.42	891
74.43	906
74.44	952
74.45	938
74.46	920
74.47	925
74.48	906
74.49	950
74.5	983
74.51	978
74.52	940
74.53	955
74.54	963
74.55	975
74.56	1011
74.57	989
74.58	982
74.59	996
74.6	979
74.61	1005
74.62	1018
74.63	1004
74.64	1005
74.65	1008
74.66	1024
74.67	1030
74.68	1041
74.69	1034
74.7	1036
74.71	1044
74.72	1049
74.73	1020
74.74	1032
74.75	1036
74.76	1055
74.77	1040
74.78	1090
74.79	1164
74.8	1146
74.81	1090
74.82	1091
74.83	1109
74.84	1127
74.85	1116
74.86	1125
74.87	1140
74.88	1158
74.89	1161
74.9	1137
74.91	1141
74.92	1148
74.93	1182
74.94	1154
74.95	1160
74.96	1173
74.97	1138
74.98	1160
74.99	1200
75.0	1192
75.01	1234
75.02	1204
75.03	1188
75.04	1189
75.05	1183
75.06	1173
75.07	1166
75.08	1185
75.09	1179
75.1	1168
75.11	1185
75.12	1170
75.13	1145
75.14	1179
75.15	1176
75.16	1169
75.17	1206
75.18	1212
75.19	1179
75.2	1136
75.21	1172
75.22	1157
75.23	1184
75.24	1168
75.25	1174
75.26	1179
75.27	1201
75.28	1190
75.29	1153
75.3	1162
75.31	1181
75.32	1154
75.33	1139
75.34	1142
75.35	1169
75.36	1136
75.37	1170
75.38	1121
75.39	1102
75.4	1082
75.41	1112
75.42	1115
75.43	1099
75.44	1088
75.45	1105
75.46	1065
75.47	1033
75.48	1029
75.49	1063
75.5	1092
75.51	1056
75.52	1064
75.53	1087
75.54	1060
75.55	1026
75.56	1047
75.57	1081
75.58	1033
75.59	1035
75.6	1012
75.61	1013
75.62	1043
75.63	1067
75.64	1038
75.65	1022
75.66	1032
75.67	1032
75.68	1001
75.69	1028
75.7	1061
75.71	1024
75.72	971
75.73	972
75.74	983
75.75	992
75.76	978
75.77	962
75.78	978
75.79	1006
75.8	960
75.81	967
75.82	985
75.83	961
75.84	976
75.85	976
75.86	955
75.87	934
75.88	954
75.89	967
75.9	963
75.91	959
75.92	972
75.93	956
75.94	926
75.95	950
75.96	944
75.97	962
75.98	974
75.99	941
76.0	966
76.01	982
76.02	956
76.03	924
76.04	950
76.05	927
76.06	929
76.07	943
76.08	944
76.09	938
76.1	974
76.11	954
76.12	958
76.13	934
76.14	931
76.15	943
76.16	924
76.17	915
76.18	915
76.19	902
76.2	923
76.21	910
76.22	906
76.23	912
76.24	931
76.25	919
76.26	904
76.27	880
76.28	880
76.29	926
76.3	898
76.31	879
76.32	881
76.33	888
76.34	889
76.35	868
76.36	871
76.37	862
76.38	865
76.39	903
76.4	869
76.41	820
76.42	813
76.43	849
76.44	824
76.45	816
76.46	806
76.47	834
76.48	835
76.49	842
76.5	861
76.51	869
76.52	841
76.53	848
76.54	819
76.55	841
76.56	844
76.57	791
76.58	805
76.59	827
76.6	797
76.61	801
76.62	785
76.63	760
76.64	760
76.65	789
76.66	818
76.67	836
76.68	834
76.69	803
76.7	753
76.71	785
76.72	806
76.73	795
76.74	799
76.75	764
76.76	768
76.77	805
76.78	802
76.79	783
76.8	767
76.81	742
76.82	765
76.83	787
76.84	798
76.85	751
76.86	738
76.87	764
76.88	795
76.89	761
76.9	754
76.91	770
76.92	757
76.93	753
76.94	771
76.95	759
76.96	742
76.97	732
76.98	767
76.99	776
77.0	757
77.01	779
77.02	790
77.03	765
77.04	753
77.05	779
77.06	766
77.07	776
77.08	743
77.09	741
77.1	743
77.11	778
77.12	764
77.13	746
77.14	743
77.15	726
77.16	754
77.17	778
77.18	776
77.19	740
77.2	730
77.21	728
77.22	729
77.23	732
77.24	741
77.25	759
77.26	748
77.27	755
77.28	747
77.29	777
77.3	752
77.31	732
77.32	713
77.33	738
77.34	722
77.35	734
77.36	719
77.37	730
77.38	733
77.39	731
77.4	728
77.41	733
77.42	727
77.43	702
77.44	696
77.45	714
77.46	749
77.47	746
77.48	734
77.49	774
77.5	758
77.51	747
77.52	731
77.53	703
77.54	743
77.55	732
77.56	749
77.57	744
77.58	730
77.59	698
77.6	701
77.61	713
77.62	706
77.63	724
77.64	712
77.65	702
77.66	702
77.67	706
77.68	725
77.69	737
77.7	706
77.71	737
77.72	754
77.73	684
77.74	708
77.75	716
77.76	717
77.77	704
77.78	694
77.79	690
77.8	729
77.81	727
77.82	709
77.83	729
77.84	718
77.85	679
77.86	682
77.87	707
77.88	714
77.89	690
77.9	733
77.91	697
77.92	670
77.93	713
77.94	702
77.95	692
77.96	713
77.97	728
77.98	743
77.99	724
78.0	712
78.01	694
78.02	711
78.03	708
78.04	711
78.05	696
78.06	707
78.07	728
78.08	734
78.09	707
78.1	691
78.11	674
78.12	672
78.13	718
78.14	697
78.15	692
78.16	722
78.17	709
78.18	683
78.19	705
78.2	735
78.21	736
78.22	734
78.23	726
78.24	726
78.25	717
78.26	675
78.27	673
78.28	691
78.29	712
78.3	727
78.31	718
78.32	673
78.33	674
78.34	686
78.35	737
78.36	711
78.37	733
78.38	709
78.39	714
78.4	718
78.41	686
78.42	706
78.43	722
78.44	686
78.45	672
78.46	683
78.47	670
78.48	686
78.49	694
78.5	685
78.51	671
78.52	717
78.53	692
78.54	680
78.55	684
78.56	719
78.57	706
78.58	684
78.59	702
78.6	741
78.61	708
78.62	695
78.63	701
78.64	715
78.65	710
78.66	720
78.67	707
78.68	690
78.69	717
78.7	683
78.71	667
78.72	680
78.73	687
78.74	716
78.75	706
78.76	709
78.77	745
78.78	750
78.79	726
78.8	700
78.81	688
78.82	710
78.83	680
78.84	692
78.85	666
78.86	689
78.87	707
78.88	690
78.89	684
78.9	691
78.91	677
78.92	684
78.93	690
78.94	684
78.95	674
78.96	719
78.97	695
78.98	680
78.99	691
79.0	654
79.01	692
79.02	676
79.03	673
79.04	675
79.05	665
79.06	679
79.07	660
79.08	633
79.09	644
79.1	657
79.11	663
79.12	687
79.13	678
79.14	675
79.15	695
79.16	729
79.17	717
79.18	696
79.19	680
79.2	682
79.21	679
79.22	674
79.23	687
79.24	674
79.25	680
79.26	706
79.27	721
79.28	710
79.29	685
79.3	683
79.31	678
79.32	667
79.33	644
79.34	650
79.35	662
79.36	692
79.37	706
79.38	687
79.39	710
79.4	688
79.41	664
79.42	675
79.43	658
79.44	687
79.45	721
79.46	720
79.47	717
79.48	702
79.49	664
79.5	675
79.51	704
79.52	687
79.53	680
79.54	692
79.55	687
79.56	670
79.57	663
79.58	701
79.59	719
79.6	725
79.61	708
79.62	705
79.63	675
79.64	657
79.65	692
79.66	684
79.67	661
79.68	677
79.69	680
79.7	666
79.71	670
79.72	704
79.73	711
79.74	706
79.75	704
79.76	682
79.77	688
79.78	682
79.79	689
79.8	691
79.81	681
79.82	670
79.83	655
79.84	673
79.85	670
79.86	683
79.87	665
79.88	673
79.89	672
79.9	679
79.91	684
79.92	690
79.93	663
79.94	655
79.95	643
79.96	627
79.97	674
79.98	721
79.99	717
80.0	704
80.01	701
80.02	709
80.03	704
80.04	704
80.05	660
80.06	660
80.07	671
80.08	695
80.09	687
80.1	698
80.11	704
80.12	695
80.13	673
80.14	675
80.15	669
80.16	656
80.17	662
80.18	686
80.19	687
80.2	678
80.21	684
80.22	710
80.23	718
80.24	701
80.25	679
80.26	705
80.27	697
80.28	699
80.29	715
80.3	704
80.31	654
80.32	669
80.33	668
80.34	701
80.35	711
80.36	716
80.37	699
80.38	684
80.39	681
80.4	679
80.41	681
80.42	683
80.43	699
80.44	668
80.45	687
80.46	680
80.47	678
80.48	682
80.49	661
80.5	656
80.51	660
80.52	658
80.53	665
80.54	667
80.55	665
80.56	664
80.57	642
80.58	672
80.59	698
80.6	705
80.61	684
80.62	672
80.63	673
80.64	683
80.65	678
80.66	682
80.67	674
80.68	713
80.69	716
80.7	700
80.71	672
80.72	672
80.73	666
80.74	660
80.75	651
80.76	655
80.77	701
80.78	693
80.79	692
80.8	666
80.81	655
80.82	641
80.83	634
80.84	671
80.85	701
80.86	695
80.87	689
80.88	651
80.89	658
80.9	710
80.91	737
80.92	702
80.93	685
80.94	696
80.95	709
80.96	710
80.97	698
80.98	661
80.99	674
81.0	701
81.01	703
81.02	683
81.03	682
81.04	663
81.05	667
81.06	688
81.07	685
81.08	694
81.09	667
81.1	679
81.11	723
81.12	691
81.13	674
81.14	676
81.15	670
81.16	686
81.17	700
81.18	717
81.19	710
81.2	660
81.21	650
81.22	686
81.23	691
81.24	686
81.25	680
81.26	664
81.27	650
81.28	668
81.29	661
81.3	686
81.31	677
81.32	668
81.33	707
81.34	698
81.35	676
81.36	671
81.37	690
81.38	666
81.39	645
81.4	667
81.41	663
81.42	705
81.43	704
81.44	689
81.45	707
81.46	684
81.47	693
81.48	721
81.49	705
81.5	698
81.51	680
81.52	701
81.53	675
81.54	675
81.55	664
81.56	709
81.57	710
81.58	712
81.59	670
81.6	676
81.61	702
81.62	705
81.63	710
81.64	663
81.65	664
81.66	690
81.67	704
81.68	740
81.69	731
81.7	683
81.71	673
81.72	684
81.73	744
81.74	731
81.75	699
81.76	704
81.77	706
81.78	703
81.79	701
81.8	704
81.81	703
81.82	710
81.83	689
81.84	697
81.85	701
81.86	694
81.87	699
81.88	718
81.89	735
81.9	727
81.91	732
81.92	738
81.93	764
81.94	776
81.95	734
81.96	742
81.97	748
81.98	727
81.99	718
82.0	717
82.01	749
82.02	756
82.03	760
82.04	739
82.05	729
82.06	722
82.07	764
82.08	781
82.09	750
82.1	737
82.11	786
82.12	781
82.13	737
82.14	737
82.15	752
82.16	795
82.17	793
82.18	775
82.19	778
82.2	765
82.21	793
82.22	800
82.23	821
82.24	804
82.25	791
82.26	779
82.27	785
82.28	803
82.29	821
82.3	813
82.31	827
82.32	813
82.33	799
82.34	808
82.35	806
82.36	843
82.37	860
82.38	859
82.39	850
82.4	840
82.41	860
82.42	832
82.43	804
82.44	834
82.45	859
82.46	864
82.47	881
82.48	882
82.49	853
82.5	850
82.51	849
82.52	851
82.53	855
82.54	852
82.55	857
82.56	848
82.57	848
82.58	903
82.59	854
82.6	880
82.61	903
82.62	919
82.63	911
82.64	891
82.65	885
82.66	892
82.67	865
82.68	862
82.69	909
82.7	913
82.71	882
82.72	892
82.73	882
82.74	879
82.75	863
82.76	881
82.77	836
82.78	878
82.79	907
82.8	894
82.81	909
82.82	932
82.83	924
82.84	915
82.85	910
82.86	894
82.87	888
82.88	902
82.89	913
82.9	908
82.91	904
82.92	900
82.93	904
82.94	871
82.95	844
82.96	859
82.97	890
82.98	883
82.99	892
83.0	885
83.01	908
83.02	874
83.03	878
83.04	852
83.05	874
83.06	872
83.07	862
83.08	887
83.09	880
83.1	865
83.11	848
83.12	840
83.13	848
83.14	853
83.15	860
83.16	830
83.17	824
83.18	826
83.19	836
83.2	812
83.21	840
83.22	825
83.23	837
83.24	860
83.25	850
83.26	809
83.27	770
83.28	793
83.29	789
83.3	800
83.31	783
83.32	796
83.33	782
83.34	784
83.35	796
83.36	806
83.37	787
83.38	758
83.39	756
83.4	778
83.41	746
83.42	755
83.43	805
83.44	780
83.45	716
83.46	724
83.47	704
83.48	688
83.49	744
83.5	757
83.51	721
83.52	717
83.53	727
83.54	720
83.55	715
83.56	706
83.57	720
83.58	760
83.59	723
83.6	725
83.61	721
83.62	704
83.63	701
83.64	715
83.65	715
83.66	732
83.67	721
83.68	701
83.69	695
83.7	720
83.71	697
83.72	682
83.73	714
83.74	696
83.75	674
83.76	658
83.77	645
83.78	672
83.79	727
83.8	718
83.81	675
83.82	677
83.83	672
83.84	668
83.85	671
83.86	658
83.87	672
83.88	643
83.89	654
83.9	650
83.91	651
83.92	652
83.93	643
83.94	672
83.95	680
83.96	655
83.97	646
83.98	650
83.99	666
84.0	671
84.01	643
84.02	623
84.03	623
84.04	621
84.05	657
84.06	684
84.07	652
84.08	652
84.09	661
84.1	631
84.11	642
84.12	633
84.13	624
84.14	673
84.15	653
84.16	643
84.17	633
84.18	627
84.19	619
84.2	629
84.21	615
84.22	607
84.23	631
84.24	628
84.25	633
84.26	617
84.27	617
84.28	594
84.29	602
84.3	597
84.31	618
84.32	608
84.33	631
84.34	626
84.35	627
84.36	626
84.37	624
84.38	617
84.39	634
84.4	615
84.41	612
84.42	609
84.43	627
84.44	632
84.45	616
84.46	626
84.47	611
84.48	611
84.49	619
84.5	649
84.51	649
84.52	610
84.53	588
84.54	558
84.55	609
84.56	634
84.57	623
84.58	609
84.59	603
84.6	609
84.61	612
84.62	607
84.63	596
84.64	599
84.65	606
84.66	587
84.67	610
84.68	609
84.69	591
84.7	610
84.71	615
84.72	608
84.73	603
84.74	617
84.75	624
84.76	601
84.77	604
84.78	616
84.79	597
84.8	581
84.81	599
84.82	597
84.83	597
84.84	607
84.85	615
84.86	591
84.87	571
84.88	579
84.89	599
84.9	600
84.91	583
84.92	585
84.93	596
84.94	585
84.95	580
84.96	597
84.97	586
84.98	599
84.99	591
85.0	566
85.01	559
85.02	573
85.03	595
85.04	598
85.05	592
85.06	589
85.07	584
85.08	565
85.09	568
85.1	589
85.11	586
85.12	570
85.13	576
85.14	599
85.15	602
85.16	600
85.17	610
85.18	598
85.19	590
85.2	582
85.21	590
85.22	564
85.23	578
85.24	600
85.25	590
85.26	565
85.27	567
85.28	589
85.29	593
85.3	595
85.31	598
85.32	596
85.33	580
85.34	591
85.35	618
85.36	587
85.37	593
85.38	570
85.39	543
85.4	555
85.41	549
85.42	556
85.43	570
85.44	577
85.45	572
85.46	554
85.47	560
85.48	573
85.49	566
85.5	556
85.51	548
85.52	564
85.53	555
85.54	567
85.55	583
85.56	595
85.57	604
85.58	567
85.59	576
85.6	577
85.61	569
85.62	575
85.63	571
85.64	579
85.65	580
85.66	594
85.67	611
85.68	581
85.69	550
85.7	550
85.71	557
85.72	541
85.73	547
85.74	561
85.75	577
85.76	582
85.77	575
85.78	571
85.79	569
85.8	577
85.81	569
85.82	570
85.83	555
85.84	575
85.85	585
85.86	566
85.87	566
85.88	577
85.89	591
85.9	593
85.91	559
85.92	562
85.93	593
85.94	584
85.95	581
85.96	574
85.97	578
85.98	567
85.99	562
86.0	543
86.01	555
86.02	566
86.03	582
86.04	569
86.05	552
86.06	550
86.07	554
86.08	576
86.09	587
86.1	564
86.11	530
86.12	539
86.13	554
86.14	562
86.15	575
86.16	586
86.17	584
86.18	554
86.19	576
86.2	577
86.21	563
86.22	554
86.23	558
86.24	548
86.25	563
86.26	570
86.27	554
86.28	574
86.29	582
86.3	548
86.31	536
86.32	562
86.33	566
86.34	547
86.35	575
86.36	576
86.37	556
86.38	568
86.39	578
86.4	596
86.41	599
86.42	576
86.43	601
86.44	588
86.45	578
86.46	572
86.47	566
86.48	563
86.49	558
86.5	574
86.51	576
86.52	561
86.53	539
86.54	534
86.55	555
86.56	554
86.57	563
86.58	569
86.59	560
86.6	556
86.61	558
86.62	548
86.63	553
86.64	555
86.65	572
86.66	538
86.67	523
86.68	544
86.69	565
86.7	572
86.71	566
86.72	550
86.73	562
86.74	578
86.75	566
86.76	533
86.77	535
86.78	554
86.79	553
86.8	552
86.81	556
86.82	554
86.83	535
86.84	539
86.85	530
86.86	524
86.87	535
86.88	556
86.89	536
86.9	557
86.91	572
86.92	563
86.93	544
86.94	561
86.95	572
86.96	575
86.97	541
86.98	544
86.99	564
87.0	565
87.01	558
87.02	568
87.03	580
87.04	560
87.05	547
87.06	533
87.07	558
87.08	576
87.09	568
87.1	547
87.11	557
87.12	552
87.13	550
87.14	567
87.15	556
87.16	557
87.17	561
87.18	556
87.19	567
87.2	548
87.21	550
87.22	551
87.23	547
87.24	547
87.25	536
87.26	546
87.27	566
87.28	581
87.29	557
87.3	560
87.31	571
87.32	575
87.33	570
87.34	589
87.35	590
87.36	590
87.37	579
87.38	542
87.39	535
87.4	558
87.41	567
87.42	534
87.43	558
87.44	555
87.45	542
87.46	559
87.47	564
87.48	568
87.49	548
87.5	550
87.51	565
87.52	546
87.53	516
87.54	508
87.55	533
87.56	546
87.57	540
87.58	540
87.59	567
87.6	585
87.61	579
87.62	579
87.63	592
87.64	591
87.65	575
87.66	578
87.67	597
87.68	581
87.69	561
87.7	557
87.71	549
87.72	555
87.73	544
87.74	532
87.75	554
87.76	556
87.77	545
87.78	560
87.79	549
87.8	542
87.81	547
87.82	541
87.83	538
87.84	528
87.85	554
87.86	559
87.87	545
87.88	527
87.89	537
87.9	573
87.91	573
87.92	561
87.93	552
87.94	553
87.95	559
87.96	576
87.97	556
87.98	541
87.99	555
88.0	565
88.01	554
88.02	541
88.03	545
88.04	563
88.05	563
88.06	557
88.07	546
88.08	545
88.09	539
88.1	543
88.11	548
88.12	554
88.13	572
88.14	561
88.15	551
88.16	546
88.17	528
88.18	537
88.19	533
88.2	520
88.21	522
88.22	529
88.23	533
88.24	555
88.25	560
88.26	538
88.27	543
88.28	548
88.29	555
88.3	557
88.31	553
88.32	570
88.33	559
88.34	539
88.35	528
88.36	535
88.37	546
88.38	536
88.39	534
88.4	538
88.41	539
88.42	535
88.43	540
88.44	547
88.45	561
88.46	565
88.47	555
88.48	552
88.49	558
88.5	559
88.51	555
88.52	555
88.53	555
88.54	548
88.55	533
88.56	547
88.57	551
88.58	556
88.59	551
88.6	535
88.61	526
88.62	541
88.63	570
88.64	566
88.65	546
88.66	545
88.67	561
88.68	557
88.69	541
88.7	545
88.71	555
88.72	533
88.73	542
88.74	561
88.75	550
88.76	534
88.77	544
88.78	556
88.79	548
88.8	547
88.81	551
88.82	549
88.83	532
88.84	510
88.85	532
88.86	562
88.87	574
88.88	562
88.89	542
88.9	520
88.91	510
88.92	522
88.93	548
88.94	551
88.95	548
88.96	532
88.97	538
88.98	544
88.99	532
89.0	517
89.01	527
89.02	541
89.03	536
89.04	532
89.05	552
89.06	541
89.07	532
89.08	521
89.09	510
89.1	527
89.11	543
89.12	551
89.13	563
89.14	558
89.15	562
89.16	547
89.17	537
89.18	546
89.19	535
89.2	516
89.21	521
89.22	525
89.23	530
89.24	547
89.25	552
89.26	556
89.27	552
89.28	565
89.29	580
89.3	554
89.31	536
89.32	528
89.33	529
89.34	524
89.35	528
89.36	540
89.37	533
89.38	550
89.39	553
89.4	531
89.41	512
89.42	532
89.43	548
89.44	554
89.45	528
89.46	533
89.47	563
89.48	575
89.49	559
89.5	554
89.51	563
89.52	545
89.53	516
89.54	514
89.55	532
89.56	555
89.57	570
89.58	560
89.59	569
89.6	562
89.61	543
89.62	533
89.63	553
89.64	559
89.65	543
89.66	538
89.67	537
89.68	534
89.69	538
89.7	547
89.71	547
89.72	551
89.73	560
89.74	552
89.75	529
89.76	531
89.77	559
89.78	576
89.79	565
89.8	544
89.81	535
89.82	545
89.83	558
89.84	565
89.85	563
89.86	543
89.87	526
89.88	534
89.89	545
89.9	547
89.91	548
89.92	546
89.93	549
89.94	556
89.95	552
89.96	556
89.97	568
89.98	558
89.99	554
90.0	536
90.01	541
90.02	540
90.03	520
90.04	534
90.05	546
90.06	553
90.07	547
90.08	528
90.09	543
90.1	555
90.11	531
90.12	504
90.13	518
90.14	550
90.15	559
90.16	549
90.17	542
90.18	541
90.19	522
90.2	506
90.21	525
90.22	548
90.23	548
90.24	536
90.25	541
90.26	539
90.27	547
90.28	547
90.29	543
90.3	538
90.31	531
90.32	541
90.33	543
90.34	540
90.35	554
90.36	553
90.37	527
90.38	519
90.39	529
90.4	541
90.41	533
90.42	541
90.43	574
90.44	564
90.45	538
90.46	533
90.47	534
90.48	541
90.49	542
90.5	537
90.51	532
90.52	530
90.53	544
90.54	552
90.55	537
90.56	538
90.57	537
90.58	534
90.59	527
90.6	518
90.61	529
90.62	550
90.63	544
90.64	540
90.65	539
90.66	545
90.67	568
90.68	565
90.69	544
90.7	539
90.71	544
90.72	567
90.73	552
90.74	519
90.75	512
90.76	519
90.77	543
90.78	555
90.79	559
90.8	555
90.81	536
90.82	532
90.83	530
90.84	528
90.85	545
90.86	547
90.87	535
90.88	521
90.89	530
90.9	552
90.91	553
90.92	558
90.93	549
90.94	533
90.95	536
90.96	544
90.97	548
90.98	534
90.99	525
91.0	523
91.01	518
91.02	526
91.03	545
91.04	532
91.05	513
91.06	507
91.07	517
91.08	538
91.09	536
91.1	539
91.11	550
91.12	547
91.13	524
91.14	523
91.15	534
91.16	532
91.17	535
91.18	533
91.19	526
91.2	527
91.21	538
91.22	554
91.23	557
91.24	553
91.25	553
91.26	532
91.27	528
91.28	536
91.29	532
91.3	531
91.31	529
91.32	531
91.33	535
91.34	512
91.35	475
91.36	492
91.37	517
91.38	519
91.39	539
91.4	547
91.41	533
91.42	523
91.43	517
91.44	518
91.45	530
91.46	525
91.47	526
91.48	539
91.49	541
91.5	534
91.51	519
91.52	525
91.53	545
91.54	564
91.55	564
91.56	544
91.57	528
91.58	529
91.59	553
91.6	551
91.61	531
91.62	533
91.63	526
91.64	523
91.65	540
91.66	538
91.67	534
91.68	533
91.69	523
91.7	520
91.71	526
91.72	530
91.73	525
91.74	531
91.75	549
91.76	531
91.77	518
91.78	543
91.79	549
91.8	550
91.81	557
91.82	555
91.83	554
91.84	536
91.85	517
91.86	524
91.87	527
91.88	511
91.89	513
91.9	517
91.91	512
91.92	536
91.93	548
91.94	528
91.95	533
91.96	530
91.97	526
91.98	546
91.99	546
92.0	531
92.01	523
92.02	529
92.03	535
92.04	519
92.05	510
92.06	521
92.07	526
92.08	526
92.09	523
92.1	532
92.11	552
92.12	567
92.13	572
92.14	555
92.15	532
92.16	528
92.17	517
92.18	513
92.19	537
92.2	556
92.21	552
92.22	541
92.23	527
92.24	522
92.25	520
92.26	521
92.27	540
92.28	540
92.29	536
92.3	548
92.31	541
92.32	525
92.33	533
92.34	542
92.35	545
92.36	547
92.37	543
92.38	546
92.39	550
92.4	548
92.41	537
92.42	540
92.43	555
92.44	569
92.45	556
92.46	535
92.47	537
92.48	534
92.49	510
92.5	522
92.51	566
92.52	585
92.53	565
92.54	542
92.55	535
92.56	533
92.57	536
92.58	535
92.59	525
92.6	511
92.61	522
92.62	553
92.63	562
92.64	539
92.65	539
92.66	550
92.67	535
92.68	528
92.69	561
92.7	580
92.71	558
92.72	530
92.73	533
92.74	558
92.75	563
92.76	573
92.77	596
92.78	578
92.79	552
92.8	528
92.81	521
92.82	536
92.83	537
92.84	530
92.85	550
92.86	569
92.87	572
92.88	568
92.89	568
92.9	577
92.91	579
92.92	573
92.93	543
92.94	539
92.95	573
92.96	573
92.97	548
92.98	544
92.99	543
93.0	553
93.01	550
93.02	543
93.03	533
93.04	521
93.05	537
93.06	556
93.07	555
93.08	566
93.09	570
93.1	559
93.11	558
93.12	551
93.13	562
93.14	578
93.15	580
93.16	583
93.17	556
93.18	525
93.19	533
93.2	563
93.21	592
93.22	582
93.23	583
93.24	596
93.25	584
93.26	574
93.27	558
93.28	564
93.29	583
93.3	577
93.31	575
93.32	584
93.33	592
93.34	579
93.35	579
93.36	590
93.37	591
93.38	589
93.39	603
93.4	596
93.41	568
93.42	580
93.43	578
93.44	586
93.45	598
93.46	604
93.47	595
93.48	600
93.49	614
93.5	621
93.51	594
93.52	579
93.53	595
93.54	618
93.55	607
93.56	601
93.57	587
93.58	568
93.59	580
93.6	589
93.61	606
93.62	626
93.63	615
93.64	596
93.65	582
93.66	596
93.67	595
93.68	598
93.69	602
93.7	594
93.71	583
93.72	605
93.73	614
93.74	596
93.75	582
93.76	587
93.77	600
93.78	618
93.79	613
93.8	598
93.81	597
93.82	610
93.83	620
93.84	618
93.85	613
93.86	625
93.87	641
93.88	615
93.89	595
93.9	600
93.91	605
93.92	624
93.93	615
93.94	609
93.95	611
93.96	627
93.97	643
93.98	643
93.99	641
94.0	632
94.01	632
94.02	637
94.03	660
94.04	664
94.05	658
94.06	643
94.07	634
94.08	655
94.09	646
94.1	641
94.11	645
94.12	657
94.13	656
94.14	631
94.15	624
94.16	637
94.17	652
94.18	658
94.19	654
94.2	648
94.21	641
94.22	654
94.23	662
94.24	655
94.25	664
94.26	641
94.27	640
94.28	651
94.29	645
94.3	645
94.31	658
94.32	649
94.33	653
94.34	674
94.35	660
94.36	651
94.37	662
94.38	661
94.39	644
94.4	633
94.41	647
94.42	667
94.43	683
94.44	684
94.45	671
94.46	658
94.47	661
94.48	645
94.49	640
94.5	666
94.51	683
94.52	679
94.53	681
94.54	684
94.55	676
94.56	683
94.57	677
94.58	646
94.59	631
94.6	656
94.61	650
94.62	646
94.63	669
94.64	665
94.65	659
94.66	659
94.67	689
94.68	684
94.69	692
94.7	697
94.71	670
94.72	683
94.73	661
94.74	671
94.75	673
94.76	678
94.77	668
94.78	650
94.79	661
94.8	686
94.81	688
94.82	674
94.83	668
94.84	667
94.85	665
94.86	661
94.87	657
94.88	689
94.89	712
94.9	683
94.91	677
94.92	683
94.93	664
94.94	669
94.95	680
94.96	674
94.97	681
94.98	644
94.99	633
95.0	653
95.01	675
95.02	666
95.03	665
95.04	674
95.05	668
95.06	674
95.07	681
95.08	691
95.09	683
95.1	690
95.11	685
95.12	691
95.13	662
95.14	648
95.15	667
95.16	661
95.17	682
95.18	665
95.19	659
95.2	657
95.21	662
95.22	666
95.23	668
95.24	676
95.25	666
95.26	668
95.27	690
95.28	645
95.29	627
95.3	657
95.31	660
95.32	663
95.33	640
95.34	639
95.35	657
95.36	693
95.37	699
95.38	696
95.39	653
95.4	638
95.41	655
95.42	676
95.43	683
95.44	677
95.45	649
95.46	636
95.47	647
95.48	672
95.49	660
95.5	629
95.51	644
95.52	645
95.53	635
95.54	644
95.55	617
95.56	635
95.57	632
95.58	651
95.59	665
95.6	626
95.61	603
95.62	612
95.63	612
95.64	621
95.65	624
95.66	611
95.67	596
95.68	603
95.69	607
95.7	610
95.71	627
95.72	630
95.73	628
95.74	607
95.75	588
95.76	615
95.77	617
95.78	603
95.79	599
95.8	589
95.81	605
95.82	602
95.83	606
95.84	627
95.85	628
95.86	605
95.87	601
95.88	604
95.89	603
95.9	609
95.91	595
95.92	587
95.93	593
95.94	594
95.95	562
95.96	568
95.97	578
95.98	588
95.99	554
96.0	560
96.01	581
96.02	593
96.03	575
96.04	562
96.05	563
96.06	564
96.07	562
96.08	565
96.09	573
96.1	577
96.11	566
96.12	557
96.13	555
96.14	548
96.15	546
96.16	549
96.17	565
96.18	563
96.19	573
96.2	560
96.21	563
96.22	545
96.23	581
96.24	587
96.25	587
96.26	575
96.27	558
96.28	548
96.29	538
96.3	523
96.31	536
96.32	553
96.33	574
96.34	555
96.35	559
96.36	570
96.37	568
96.38	551
96.39	544
96.4	548
96.41	544
96.42	541
96.43	545
96.44	534
96.45	539
96.46	549
96.47	517
96.48	524
96.49	557
96.5	547
96.51	538
96.52	545
96.53	546
96.54	539
96.55	553
96.56	551
96.57	549
96.58	536
96.59	523
96.6	519
96.61	543
96.62	554
96.63	562
96.64	532
96.65	545
96.66	548
96.67	555
96.68	554
96.69	545
96.7	544
96.71	543
96.72	550
96.73	540
96.74	519
96.75	533
96.76	548
96.77	526
96.78	512
96.79	520
96.8	513
96.81	530
96.82	514
96.83	548
96.84	543
96.85	562
96.86	575
96.87	569
96.88	545
96.89	547
96.9	555
96.91	542
96.92	540
96.93	537
96.94	529
96.95	530
96.96	532
96.97	553
96.98	562
96.99	542
97.0	522
97.01	526
97.02	531
97.03	526
97.04	516
97.05	532
97.06	550
97.07	571
97.08	537
97.09	516
97.1	528
97.11	525
97.12	532
97.13	541
97.14	549
97.15	546
97.16	549
97.17	534
97.18	523
97.19	518
97.2	546
97.21	502
97.22	527
97.23	571
97.24	548
97.25	511
97.26	543
97.27	535
97.28	568
97.29	542
97.3	512
97.31	512
97.32	541
97.33	541
97.34	532
97.35	530
97.36	548
97.37	533
97.38	530
97.39	543
97.4	565
97.41	566
97.42	540
97.43	539
97.44	550
97.45	524
97.46	515
97.47	551
97.48	550
97.49	560
97.5	528
97.51	528
97.52	543
97.53	547
97.54	541
97.55	541
97.56	538
97.57	552
97.58	581
97.59	548
97.6	541
97.61	557
97.62	551
97.63	568
97.64	541
97.65	538
97.66	540
97.67	551
97.68	567
97.69	547
97.7	532
97.71	516
97.72	526
97.73	546
97.74	563
97.75	594
97.76	606
97.77	572
97.78	588
97.79	589
97.8	529
97.81	560
97.82	562
97.83	559
97.84	574
97.85	565
97.86	571
97.87	527
97.88	548
97.89	557
97.9	571
97.91	551
97.92	541
97.93	568
97.94	561
97.95	528
97.96	541
97.97	555
97.98	567
97.99	561
98.0	574
98.01	591
98.02	576
98.03	561
98.04	561
98.05	559
98.06	554
98.07	559
98.08	561
98.09	571
98.1	591
98.11	585
98.12	571
98.13	584
98.14	611
98.15	611
98.16	568
98.17	549
98.18	555
98.19	553
98.2	583
98.21	599
98.22	585
98.23	582
98.24	596
98.25	590
98.26	584
98.27	579
98.28	609
98.29	597
98.3	596
98.31	624
98.32	629
98.33	605
98.34	571
98.35	583
98.36	576
98.37	555
98.38	573
98.39	580
98.4	600
98.41	604
98.42	620
98.43	598
98.44	582
98.45	597
98.46	598
98.47	584
98.48	591
98.49	612
98.5	578
98.51	587
98.52	559
98.53	562
98.54	593
98.55	599
98.56	585
98.57	574
98.58	565
98.59	580
98.6	581
98.61	580
98.62	599
98.63	611
98.64	591
98.65	597
98.66	595
98.67	579
98.68	562
98.69	586
98.7	593
98.71	564
98.72	547
98.73	550
98.74	560
98.75	565
98.76	554
98.77	623
98.78	600
98.79	557
98.8	577
98.81	577
98.82	587
98.83	590
98.84	583
98.85	581
98.86	585
98.87	568
98.88	574
98.89	579
98.9	583
98.91	588
98.92	573
98.93	574
98.94	571
98.95	577
98.96	547
98.97	570
98.98	583
98.99	587
99.0	559
99.01	529
99.02	581
99.03	583
99.04	552
99.05	566
99.06	573
99.07	567
99.08	560
99.09	560
99.1	575
99.11	552
99.12	581
99.13	577
99.14	572
99.15	562
99.16	566
99.17	571
99.18	581
99.19	580
99.2	576
99.21	570
99.22	560
99.23	597
99.24	606
99.25	570
99.26	573
99.27	580
99.28	578
99.29	583
99.3	584
99.31	553
99.32	585
99.33	597
99.34	595
99.35	565
99.36	573
99.37	576
99.38	572
99.39	576
99.4	571
99.41	546
99.42	560
99.43	579
99.44	570
99.45	580
99.46	565
99.47	570
99.48	570
99.49	569
99.5	587
99.51	599
99.52	599
99.53	567
99.54	557
99.55	567
99.56	581
99.57	595
99.58	565
99.59	590
99.6	569
99.61	555
99.62	560
99.63	585
99.64	577
99.65	580
99.66	574
99.67	572
99.68	560
99.69	570
99.7	577
99.71	537
99.72	575
99.73	581
99.74	537
99.75	558
99.76	599
99.77	608
99.78	597
99.79	566
99.8	544
99.81	554
99.82	579
99.83	573
99.84	552
99.85	560
99.86	563
99.87	545
99.88	550
99.89	553
99.9	566
99.91	583
99.92	583
99.93	582
99.94	595
99.95	565
99.96	578
99.97	575
99.98	541
99.99	555
100.0	550
