Single_Li2TiO3_SPEX1
Wavelength = 1.54059 Ã… (Cu)
Angle	I(o)	I(b)
10.0	1740.0	1740.8
10.01	1760.0	1741.5
10.02	1757.0	1742.2
10.03	1734.0	1742.9
10.04	1742.0	1743.5
10.05	1785.0	1744.2
10.06	1762.0	1744.9
10.07	1756.0	1745.6
10.08	1779.0	1746.3
10.09	1754.0	1747.0
10.1	1738.0	1747.7
10.11	1722.0	1748.3
10.12	1745.0	1749.0
10.13	1763.0	1749.7
10.14	1765.0	1750.4
10.15	1796.0	1751.1
10.16	1762.0	1751.8
10.17	1781.0	1752.4
10.18	1770.0	1753.1
10.19	1802.0	1753.8
10.2	1846.0	1754.5
10.21	1856.0	1755.2
10.22	1766.0	1755.9
10.23	1765.0	1756.6
10.24	1775.0	1757.2
10.25	1787.0	1757.9
10.26	1733.0	1758.6
10.27	1761.0	1759.3
10.28	1811.0	1760.0
10.29	1801.0	1760.7
10.3	1750.0	1761.4
10.31	1740.0	1762.0
10.32	1802.0	1762.7
10.33	1765.0	1763.4
10.34	1787.0	1764.1
10.35	1760.0	1764.8
10.36	1761.0	1765.5
10.37	1770.0	1766.2
10.38	1726.0	1766.8
10.39	1724.0	1767.5
10.4	1752.0	1768.2
10.41	1781.0	1768.9
10.42	1783.0	1769.6
10.43	1771.0	1770.3
10.44	1759.0	1771.0
10.45	1742.0	1771.7
10.46	1766.0	1772.3
10.47	1785.0	1773.0
10.48	1822.0	1773.7
10.49	1863.0	1774.4
10.5	1883.0	1775.1
10.51	1818.0	1775.8
10.52	1795.0	1776.5
10.53	1791.0	1777.2
10.54	1786.0	1777.8
10.55	1791.0	1778.5
10.56	1787.0	1779.2
10.57	1838.0	1779.9
10.58	1815.0	1780.6
10.59	1791.0	1781.3
10.6	1820.0	1782.0
10.61	1796.0	1782.7
10.62	1847.0	1783.3
10.63	1877.0	1784.0
10.64	1829.0	1784.7
10.65	1823.0	1785.4
10.66	1795.0	1786.1
10.67	1818.0	1786.8
10.68	1797.0	1787.5
10.69	1797.0	1788.2
10.7	1790.0	1788.9
10.71	1835.0	1789.5
10.72	1855.0	1790.2
10.73	1833.0	1790.9
10.74	1795.0	1791.6
10.75	1777.0	1792.3
10.76	1764.0	1793.0
10.77	1856.0	1793.7
10.78	1832.0	1794.4
10.79	1828.0	1795.1
10.8	1854.0	1795.8
10.81	1804.0	1796.4
10.82	1780.0	1797.1
10.83	1766.0	1797.8
10.84	1805.0	1798.5
10.85	1805.0	1799.2
10.86	1829.0	1799.9
10.87	1848.0	1800.6
10.88	1821.0	1801.3
10.89	1825.0	1802.0
10.9	1817.0	1802.7
10.91	1848.0	1803.4
10.92	1816.0	1804.1
10.93	1857.0	1804.7
10.94	1865.0	1805.4
10.95	1857.0	1806.1
10.96	1873.0	1806.8
10.97	1833.0	1807.5
10.98	1879.0	1808.2
10.99	1891.0	1808.9
11.0	1861.0	1809.6
11.01	1855.0	1810.3
11.02	1853.0	1811.0
11.03	1844.0	1811.7
11.04	1861.0	1812.4
11.05	1846.0	1813.1
11.06	1855.0	1813.8
11.07	1827.0	1814.5
11.08	1817.0	1815.2
11.09	1819.0	1815.8
11.1	1830.0	1816.5
11.11	1855.0	1817.2
11.12	1807.0	1817.9
11.13	1843.0	1818.6
11.14	1855.0	1819.3
11.15	1861.0	1820.0
11.16	1842.0	1820.7
11.17	1850.0	1821.4
11.18	1884.0	1822.1
11.19	1864.0	1822.8
11.2	1811.0	1823.5
11.21	1821.0	1824.2
11.22	1815.0	1824.9
11.23	1796.0	1825.6
11.24	1877.0	1826.3
11.25	1848.0	1827.0
11.26	1872.0	1827.7
11.27	1897.0	1828.4
11.28	1918.0	1829.1
11.29	1892.0	1829.8
11.3	1876.0	1830.5
11.31	1896.0	1831.2
11.32	1798.0	1831.9
11.33	1845.0	1832.6
11.34	1897.0	1833.3
11.35	1867.0	1834.0
11.36	1857.0	1834.7
11.37	1887.0	1835.4
11.38	1875.0	1836.1
11.39	1879.0	1836.8
11.4	1898.0	1837.5
11.41	1867.0	1838.2
11.42	1888.0	1838.9
11.43	1860.0	1839.6
11.44	1866.0	1840.3
11.45	1935.0	1841.0
11.46	1917.0	1841.7
11.47	1869.0	1842.4
11.48	1869.0	1843.1
11.49	1857.0	1843.8
11.5	1813.0	1844.5
11.51	1874.0	1845.2
11.52	1923.0	1845.9
11.53	1870.0	1846.6
11.54	1881.0	1847.3
11.55	1888.0	1848.0
11.56	1814.0	1848.7
11.57	1859.0	1849.4
11.58	1934.0	1850.1
11.59	1901.0	1850.8
11.6	1879.0	1851.5
11.61	1874.0	1852.2
11.62	1894.0	1852.9
11.63	1868.0	1853.6
11.64	1883.0	1854.3
11.65	1909.0	1855.0
11.66	1873.0	1855.7
11.67	1843.0	1856.4
11.68	1866.0	1857.1
11.69	1870.0	1857.8
11.7	1871.0	1858.5
11.71	1863.0	1859.2
11.72	1841.0	1859.9
11.73	1851.0	1860.6
11.74	1896.0	1861.3
11.75	1926.0	1862.0
11.76	1926.0	1862.7
11.77	1914.0	1863.4
11.78	1893.0	1864.1
11.79	1903.0	1864.8
11.8	1935.0	1865.5
11.81	1897.0	1866.2
11.82	1877.0	1866.9
11.83	1939.0	1867.6
11.84	1913.0	1868.3
11.85	1913.0	1869.0
11.86	1872.0	1869.7
11.87	1900.0	1870.4
11.88	1893.0	1871.1
11.89	1872.0	1871.8
11.9	1936.0	1872.5
11.91	1913.0	1873.2
11.92	1901.0	1873.9
11.93	1905.0	1874.6
11.94	1925.0	1875.3
11.95	1952.0	1876.0
11.96	1928.0	1876.7
11.97	1900.0	1877.4
11.98	1927.0	1878.1
11.99	1950.0	1878.8
12.0	1946.0	1879.4
12.01	1944.0	1880.1
12.02	1941.0	1880.8
12.03	1950.0	1881.5
12.04	1976.0	1882.2
12.05	1985.0	1882.9
12.06	1945.0	1883.6
12.07	1927.0	1884.3
12.08	1947.0	1885.0
12.09	1964.0	1885.7
12.1	1925.0	1886.4
12.11	1896.0	1887.1
12.12	1962.0	1887.7
12.13	1918.0	1888.4
12.14	1918.0	1889.1
12.15	1956.0	1889.8
12.16	1951.0	1890.5
12.17	1931.0	1891.2
12.18	1914.0	1891.9
12.19	1956.0	1892.6
12.2	1931.0	1893.3
12.21	1906.0	1893.9
12.22	1982.0	1894.6
12.23	1900.0	1895.3
12.24	1885.0	1896.0
12.25	1905.0	1896.7
12.26	1901.0	1897.4
12.27	1959.0	1898.0
12.28	2004.0	1898.7
12.29	1955.0	1899.4
12.3	1895.0	1900.1
12.31	1966.0	1900.8
12.32	1978.0	1901.4
12.33	1968.0	1902.1
12.34	1975.0	1902.8
12.35	1999.0	1903.5
12.36	1932.0	1904.2
12.37	1898.0	1904.8
12.38	1932.0	1905.5
12.39	1933.0	1906.2
12.4	1992.0	1906.9
12.41	1991.0	1907.5
12.42	1992.0	1908.2
12.43	1958.0	1908.9
12.44	1981.0	1909.6
12.45	2019.0	1910.2
12.46	2019.0	1910.9
12.47	2001.0	1911.6
12.48	1933.0	1912.3
12.49	1886.0	1912.9
12.5	1877.0	1913.6
12.51	1933.0	1914.3
12.52	1968.0	1914.9
12.53	1966.0	1915.6
12.54	1980.0	1916.3
12.55	1955.0	1916.9
12.56	1949.0	1917.6
12.57	1955.0	1918.3
12.58	1998.0	1918.9
12.59	2002.0	1919.6
12.6	1952.0	1920.3
12.61	1929.0	1920.9
12.62	1958.0	1921.6
12.63	1981.0	1922.2
12.64	2034.0	1922.9
12.65	1982.0	1923.6
12.66	1978.0	1924.2
12.67	1939.0	1924.9
12.68	1985.0	1925.5
12.69	1995.0	1926.2
12.7	1946.0	1926.8
12.71	1932.0	1927.5
12.72	1986.0	1928.1
12.73	1956.0	1928.8
12.74	1961.0	1929.4
12.75	1969.0	1930.1
12.76	1941.0	1930.8
12.77	1987.0	1931.4
12.78	2036.0	1932.0
12.79	2040.0	1932.7
12.8	1998.0	1933.3
12.81	1952.0	1934.0
12.82	1952.0	1934.6
12.83	1995.0	1935.3
12.84	2017.0	1935.9
12.85	2007.0	1936.6
12.86	1998.0	1937.2
12.87	2013.0	1937.8
12.88	2018.0	1938.5
12.89	2022.0	1939.1
12.9	1983.0	1939.8
12.91	1991.0	1940.4
12.92	2008.0	1941.0
12.93	2011.0	1941.7
12.94	2035.0	1942.3
12.95	1988.0	1942.9
12.96	1986.0	1943.6
12.97	1995.0	1944.2
12.98	1997.0	1944.8
12.99	2002.0	1945.5
13.0	1983.0	1946.1
13.01	1940.0	1946.7
13.02	1994.0	1947.3
13.03	2033.0	1948.0
13.04	2033.0	1948.6
13.05	1996.0	1949.2
13.06	2012.0	1949.8
13.07	2002.0	1950.5
13.08	2029.0	1951.1
13.09	1983.0	1951.7
13.1	1992.0	1952.3
13.11	1979.0	1952.9
13.12	1973.0	1953.5
13.13	1991.0	1954.2
13.14	1933.0	1954.8
13.15	1959.0	1955.4
13.16	1964.0	1956.0
13.17	1974.0	1956.6
13.18	1992.0	1957.2
13.19	1995.0	1957.8
13.2	2035.0	1958.4
13.21	2062.0	1959.0
13.22	2027.0	1959.6
13.23	2006.0	1960.2
13.24	1989.0	1960.8
13.25	1987.0	1961.4
13.26	2057.0	1962.0
13.27	2067.0	1962.6
13.28	2024.0	1963.2
13.29	2015.0	1963.8
13.3	1956.0	1964.4
13.31	1994.0	1965.0
13.32	1963.0	1965.6
13.33	1933.0	1966.2
13.34	1971.0	1966.8
13.35	1999.0	1967.4
13.36	2003.0	1968.0
13.37	2006.0	1968.6
13.38	1996.0	1969.1
13.39	2014.0	1969.7
13.4	2059.0	1970.3
13.41	2015.0	1970.9
13.42	1990.0	1971.5
13.43	2009.0	1972.0
13.44	2004.0	1972.6
13.45	1998.0	1973.2
13.46	2031.0	1973.8
13.47	2061.0	1974.3
13.48	2036.0	1974.9
13.49	2037.0	1975.5
13.5	2068.0	1976.1
13.51	2114.0	1976.6
13.52	2036.0	1977.2
13.53	2031.0	1977.8
13.54	2018.0	1978.3
13.55	2008.0	1978.9
13.56	2032.0	1979.4
13.57	2039.0	1980.0
13.58	2014.0	1980.6
13.59	2007.0	1981.1
13.6	2048.0	1981.7
13.61	2070.0	1982.2
13.62	2057.0	1982.8
13.63	2028.0	1983.3
13.64	2035.0	1983.9
13.65	2039.0	1984.4
13.66	2024.0	1985.0
13.67	2037.0	1985.5
13.68	2018.0	1986.1
13.69	2057.0	1986.6
13.7	2090.0	1987.2
13.71	2026.0	1987.7
13.72	2038.0	1988.2
13.73	1998.0	1988.8
13.74	1971.0	1989.3
13.75	2030.0	1989.9
13.76	2049.0	1990.4
13.77	2087.0	1990.9
13.78	2069.0	1991.5
13.79	2020.0	1992.0
13.8	2026.0	1992.5
13.81	2056.0	1993.0
13.82	2025.0	1993.6
13.83	2042.0	1994.1
13.84	2029.0	1994.6
13.85	2078.0	1995.1
13.86	2041.0	1995.7
13.87	2072.0	1996.2
13.88	2056.0	1996.7
13.89	2013.0	1997.2
13.9	2067.0	1997.7
13.91	2055.0	1998.2
13.92	2046.0	1998.7
13.93	2040.0	1999.3
13.94	2053.0	1999.8
13.95	2022.0	2000.3
13.96	2035.0	2000.8
13.97	2037.0	2001.3
13.98	2061.0	2001.8
13.99	2053.0	2002.3
14.0	2088.0	2002.8
14.01	2067.0	2003.3
14.02	2016.0	2003.8
14.03	2042.0	2004.3
14.04	2085.0	2004.8
14.05	2085.0	2005.3
14.06	2073.0	2005.8
14.07	2107.0	2006.2
14.08	2107.0	2006.7
14.09	2035.0	2007.2
14.1	2065.0	2007.7
14.11	2098.0	2008.2
14.12	2070.0	2008.7
14.13	2100.0	2009.1
14.14	2121.0	2009.6
14.15	2110.0	2010.1
14.16	2074.0	2010.6
14.17	2054.0	2011.0
14.18	2072.0	2011.5
14.19	2103.0	2012.0
14.2	2050.0	2012.5
14.21	2061.0	2012.9
14.22	2070.0	2013.4
14.23	2065.0	2013.8
14.24	2104.0	2014.3
14.25	2106.0	2014.8
14.26	2056.0	2015.2
14.27	2087.0	2015.7
14.28	2154.0	2016.1
14.29	2146.0	2016.6
14.3	2092.0	2017.1
14.31	2095.0	2017.5
14.32	2087.0	2018.0
14.33	2080.0	2018.4
14.34	2054.0	2018.8
14.35	2048.0	2019.3
14.36	2066.0	2019.7
14.37	2074.0	2020.2
14.38	2061.0	2020.6
14.39	2049.0	2021.1
14.4	2079.0	2021.5
14.41	2112.0	2021.9
14.42	2102.0	2022.4
14.43	2071.0	2022.8
14.44	2066.0	2023.2
14.45	2065.0	2023.6
14.46	2089.0	2024.1
14.47	2091.0	2024.5
14.48	2075.0	2024.9
14.49	2134.0	2025.3
14.5	2141.0	2025.8
14.51	2095.0	2026.2
14.52	2046.0	2026.6
14.53	2051.0	2027.0
14.54	2080.0	2027.4
14.55	2099.0	2027.8
14.56	2086.0	2028.2
14.57	2054.0	2028.6
14.58	2017.0	2029.0
14.59	2036.0	2029.5
14.6	2033.0	2029.9
14.61	2081.0	2030.3
14.62	2090.0	2030.7
14.63	2115.0	2031.0
14.64	2107.0	2031.4
14.65	2117.0	2031.8
14.66	2097.0	2032.2
14.67	2084.0	2032.6
14.68	2064.0	2033.0
14.69	2076.0	2033.4
14.7	2064.0	2033.8
14.71	2035.0	2034.2
14.72	2038.0	2034.5
14.73	2098.0	2034.9
14.74	2079.0	2035.3
14.75	2068.0	2035.7
14.76	2107.0	2036.0
14.77	2062.0	2036.4
14.78	2059.0	2036.8
14.79	2062.0	2037.2
14.8	2065.0	2037.5
14.81	2070.0	2037.9
14.82	2086.0	2038.2
14.83	2089.0	2038.6
14.84	2087.0	2039.0
14.85	2047.0	2039.3
14.86	2049.0	2039.7
14.87	2079.0	2040.0
14.88	2075.0	2040.4
14.89	2116.0	2040.7
14.9	2116.0	2041.1
14.91	2100.0	2041.4
14.92	2048.0	2041.8
14.93	2042.0	2042.1
14.94	2063.0	2042.5
14.95	2083.0	2042.8
14.96	2057.0	2043.1
14.97	2015.0	2043.5
14.98	2038.0	2043.8
14.99	2079.0	2044.1
15.0	2105.0	2044.5
15.01	2067.0	2044.8
15.02	2062.0	2045.1
15.03	2084.0	2045.4
15.04	2084.0	2045.8
15.05	2065.0	2046.1
15.06	2063.0	2046.4
15.07	2059.0	2046.7
15.08	2033.0	2047.0
15.09	1995.0	2047.3
15.1	2000.0	2047.6
15.11	2033.0	2047.9
15.12	2042.0	2048.3
15.13	2052.0	2048.6
15.14	2052.0	2048.9
15.15	2072.0	2049.2
15.16	2077.0	2049.5
15.17	2068.0	2049.8
15.18	2080.0	2050.0
15.19	2035.0	2050.3
15.2	2033.0	2050.6
15.21	2056.0	2050.9
15.22	2047.0	2051.2
15.23	2063.0	2051.5
15.24	2044.0	2051.8
15.25	2009.0	2052.1
15.26	2002.0	2052.3
15.27	1995.0	2052.6
15.28	1992.0	2052.9
15.29	2019.0	2053.2
15.3	2043.0	2053.4
15.31	2036.0	2053.7
15.32	2021.0	2054.0
15.33	2033.0	2054.2
15.34	2057.0	2054.5
15.35	2027.0	2054.7
15.36	2007.0	2055.0
15.37	2057.0	2055.3
15.38	2048.0	2055.5
15.39	2017.0	2055.8
15.4	2034.0	2056.0
15.41	2050.0	2056.3
15.42	2031.0	2056.5
15.43	1988.0	2056.7
15.44	2000.0	2057.0
15.45	2053.0	2057.2
15.46	2098.0	2057.5
15.47	2051.0	2057.7
15.48	2053.0	2057.9
15.49	2107.0	2058.2
15.5	2095.0	2058.4
15.51	2090.0	2058.6
15.52	2075.0	2058.8
15.53	2059.0	2059.1
15.54	2057.0	2059.3
15.55	2039.0	2059.5
15.56	2000.0	2059.7
15.57	2009.0	2059.9
15.58	2025.0	2060.1
15.59	2046.0	2060.3
15.6	2062.0	2060.6
15.61	2077.0	2060.8
15.62	2095.0	2061.0
15.63	2065.0	2061.2
15.64	2011.0	2061.4
15.65	2034.0	2061.6
15.66	2042.0	2061.8
15.67	2035.0	2061.9
15.68	1999.0	2062.1
15.69	2020.0	2062.3
15.7	2006.0	2062.5
15.71	2039.0	2062.7
15.72	2073.0	2062.9
15.73	2045.0	2063.1
15.74	2030.0	2063.2
15.75	2021.0	2063.4
15.76	2069.0	2063.6
15.77	2085.0	2063.7
15.78	2075.0	2063.9
15.79	2023.0	2064.1
15.8	2027.0	2064.2
15.81	2015.0	2064.4
15.82	2021.0	2064.6
15.83	2037.0	2064.7
15.84	2011.0	2064.9
15.85	2028.0	2065.0
15.86	2031.0	2065.2
15.87	2002.0	2065.3
15.88	1992.0	2065.5
15.89	1980.0	2065.6
15.9	1969.0	2065.8
15.91	2025.0	2065.9
15.92	2031.0	2066.0
15.93	2019.0	2066.2
15.94	2038.0	2066.3
15.95	2025.0	2066.4
15.96	2009.0	2066.6
15.97	2040.0	2066.7
15.98	2028.0	2066.8
15.99	1978.0	2066.9
16.0	1988.0	2067.0
16.01	2023.0	2067.2
16.02	2045.0	2067.3
16.03	2014.0	2067.4
16.04	2051.0	2067.5
16.05	2052.0	2067.6
16.06	2020.0	2067.7
16.07	1997.0	2067.8
16.08	1977.0	2067.9
16.09	1965.0	2068.0
16.1	1990.0	2068.1
16.11	1988.0	2068.2
16.12	1985.0	2068.3
16.13	1996.0	2068.4
16.14	1991.0	2068.5
16.15	1979.0	2068.5
16.16	1973.0	2068.6
16.17	2009.0	2068.7
16.18	2003.0	2068.8
16.19	2013.0	2068.8
16.2	2039.0	2068.9
16.21	2064.0	2069.0
16.22	2064.0	2069.1
16.23	2024.0	2069.1
16.24	1999.0	2069.2
16.25	2037.0	2069.2
16.26	2045.0	2069.3
16.27	2024.0	2069.3
16.28	2024.0	2069.4
16.29	2019.0	2069.4
16.3	2028.0	2069.5
16.31	2022.0	2069.5
16.32	1994.0	2069.6
16.33	1982.0	2069.6
16.34	2018.0	2069.7
16.35	2038.0	2069.7
16.36	2020.0	2069.7
16.37	1997.0	2069.8
16.38	1993.0	2069.8
16.39	1996.0	2069.8
16.4	2013.0	2069.8
16.41	2054.0	2069.9
16.42	2027.0	2069.9
16.43	1985.0	2069.9
16.44	2022.0	2069.9
16.45	2069.0	2069.9
16.46	2043.0	2069.9
16.47	2045.0	2069.9
16.48	2046.0	2069.9
16.49	2056.0	2069.9
16.5	2031.0	2069.9
16.51	1983.0	2069.9
16.52	1953.0	2069.9
16.53	1990.0	2069.9
16.54	2020.0	2069.9
16.55	2013.0	2069.9
16.56	2032.0	2069.9
16.57	2045.0	2069.8
16.58	2024.0	2069.8
16.59	2005.0	2069.8
16.6	1988.0	2069.8
16.61	1986.0	2069.7
16.62	2025.0	2069.7
16.63	2032.0	2069.7
16.64	2019.0	2069.6
16.65	2009.0	2069.6
16.66	2033.0	2069.5
16.67	2065.0	2069.5
16.68	2051.0	2069.4
16.69	2069.0	2069.4
16.7	2070.0	2069.3
16.71	2047.0	2069.3
16.72	2028.0	2069.2
16.73	2000.0	2069.2
16.74	2005.0	2069.1
16.75	2009.0	2069.0
16.76	2012.0	2069.0
16.77	2034.0	2068.9
16.78	2028.0	2068.8
16.79	2020.0	2068.7
16.8	2017.0	2068.7
16.81	2003.0	2068.6
16.82	1995.0	2068.5
16.83	2014.0	2068.4
16.84	2041.0	2068.3
16.85	2024.0	2068.2
16.86	2043.0	2068.1
16.87	2046.0	2068.0
16.88	2051.0	2067.9
16.89	2069.0	2067.8
16.9	2066.0	2067.7
16.91	2038.0	2067.6
16.92	2018.0	2067.5
16.93	2015.0	2067.4
16.94	2034.0	2067.3
16.95	2049.0	2067.1
16.96	2028.0	2067.0
16.97	2007.0	2066.9
16.98	2002.0	2066.8
16.99	2000.0	2066.6
17.0	2011.0	2066.5
17.01	2013.0	2066.4
17.02	2002.0	2066.2
17.03	1999.0	2066.1
17.04	2033.0	2066.0
17.05	2041.0	2065.8
17.06	2027.0	2065.7
17.07	2051.0	2065.5
17.08	2050.0	2065.3
17.09	1991.0	2065.2
17.1	1952.0	2065.0
17.11	1942.0	2064.9
17.12	1975.0	2064.7
17.13	2025.0	2064.5
17.14	2017.0	2064.4
17.15	2029.0	2064.2
17.16	2006.0	2064.0
17.17	1932.0	2063.8
17.18	1964.0	2063.6
17.19	2003.0	2063.5
17.2	2001.0	2063.3
17.21	2023.0	2063.1
17.22	2013.0	2062.9
17.23	1967.0	2062.7
17.24	1976.0	2062.5
17.25	2036.0	2062.3
17.26	2060.0	2062.1
17.27	2016.0	2061.9
17.28	1982.0	2061.7
17.29	2005.0	2061.5
17.3	2020.0	2061.2
17.31	2040.0	2061.0
17.32	2042.0	2060.8
17.33	2017.0	2060.6
17.34	2007.0	2060.3
17.35	2036.0	2060.1
17.36	2052.0	2059.9
17.37	2037.0	2059.6
17.38	2009.0	2059.4
17.39	1992.0	2059.2
17.4	2005.0	2058.9
17.41	2002.0	2058.7
17.42	2008.0	2058.4
17.43	2035.0	2058.2
17.44	2033.0	2057.9
17.45	2036.0	2057.7
17.46	2046.0	2057.4
17.47	2016.0	2057.1
17.48	2020.0	2056.9
17.49	2017.0	2056.6
17.5	1993.0	2056.3
17.51	2012.0	2056.0
17.52	2020.0	2055.8
17.53	2011.0	2055.5
17.54	2024.0	2055.2
17.55	2020.0	2054.9
17.56	2011.0	2054.6
17.57	2020.0	2054.3
17.58	2029.0	2054.0
17.59	2019.0	2053.7
17.6	2001.0	2053.4
17.61	2023.0	2053.1
17.62	2044.0	2052.8
17.63	2036.0	2052.5
17.64	2056.0	2052.2
17.65	2076.0	2051.9
17.66	2064.0	2051.5
17.67	2060.0	2051.2
17.68	2060.0	2050.9
17.69	2088.0	2050.6
17.7	2081.0	2050.2
17.71	2036.0	2049.9
17.72	2018.0	2049.5
17.73	2007.0	2049.2
17.74	2040.0	2048.9
17.75	2022.0	2048.5
17.76	1994.0	2048.2
17.77	2015.0	2047.8
17.78	2020.0	2047.4
17.79	2053.0	2047.1
17.8	2069.0	2046.7
17.81	2077.0	2046.4
17.82	2086.0	2046.0
17.83	2075.0	2045.6
17.84	2060.0	2045.2
17.85	2063.0	2044.9
17.86	2108.0	2044.5
17.87	2130.0	2044.1
17.88	2128.0	2043.7
17.89	2142.0	2043.3
17.9	2132.0	2042.9
17.91	2136.0	2042.5
17.92	2139.0	2042.1
17.93	2096.0	2041.7
17.94	2085.0	2041.3
17.95	2121.0	2040.9
17.96	2136.0	2040.5
17.97	2146.0	2040.1
17.98	2176.0	2039.7
17.99	2169.0	2039.2
18.0	2149.0	2038.8
18.01	2200.0	2038.4
18.02	2234.0	2038.0
18.03	2214.0	2037.5
18.04	2203.0	2037.1
18.05	2194.0	2036.7
18.06	2209.0	2036.2
18.07	2263.0	2035.8
18.08	2279.0	2035.3
18.09	2295.0	2034.9
18.1	2319.0	2034.4
18.11	2302.0	2033.9
18.12	2253.0	2033.5
18.13	2240.0	2033.0
18.14	2295.0	2032.6
18.15	2312.0	2032.1
18.16	2302.0	2031.6
18.17	2316.0	2031.1
18.18	2356.0	2030.6
18.19	2426.0	2030.2
18.2	2470.0	2029.7
18.21	2454.0	2029.2
18.22	2410.0	2028.7
18.23	2400.0	2028.2
18.24	2439.0	2027.7
18.25	2432.0	2027.2
18.26	2424.0	2026.7
18.27	2449.0	2026.2
18.28	2458.0	2025.7
18.29	2486.0	2025.1
18.3	2518.0	2024.6
18.31	2516.0	2024.1
18.32	2499.0	2023.6
18.33	2523.0	2023.0
18.34	2551.0	2022.5
18.35	2595.0	2022.0
18.36	2658.0	2021.4
18.37	2673.0	2020.9
18.38	2641.0	2020.3
18.39	2642.0	2019.8
18.4	2674.0	2019.2
18.41	2657.0	2018.7
18.42	2649.0	2018.1
18.43	2672.0	2017.6
18.44	2651.0	2017.0
18.45	2622.0	2016.4
18.46	2615.0	2015.9
18.47	2641.0	2015.3
18.48	2660.0	2014.7
18.49	2618.0	2014.1
18.5	2592.0	2013.5
18.51	2562.0	2012.9
18.52	2526.0	2012.4
18.53	2511.0	2011.8
18.54	2476.0	2011.2
18.55	2414.0	2010.6
18.56	2423.0	2010.0
18.57	2453.0	2009.3
18.58	2461.0	2008.7
18.59	2483.0	2008.1
18.6	2429.0	2007.5
18.61	2382.0	2006.9
18.62	2361.0	2006.3
18.63	2354.0	2005.6
18.64	2349.0	2005.0
18.65	2315.0	2004.4
18.66	2296.0	2003.7
18.67	2275.0	2003.1
18.68	2253.0	2002.4
18.69	2230.0	2001.8
18.7	2211.0	2001.1
18.71	2201.0	2000.5
18.72	2211.0	1999.8
18.73	2238.0	1999.1
18.74	2247.0	1998.5
18.75	2211.0	1997.8
18.76	2152.0	1997.1
18.77	2095.0	1996.5
18.78	2097.0	1995.8
18.79	2144.0	1995.1
18.8	2154.0	1994.4
18.81	2127.0	1993.7
18.82	2116.0	1993.0
18.83	2107.0	1992.3
18.84	2123.0	1991.6
18.85	2149.0	1990.9
18.86	2107.0	1990.2
18.87	2057.0	1989.5
18.88	2073.0	1988.8
18.89	2108.0	1988.1
18.9	2104.0	1987.4
18.91	2090.0	1986.6
18.92	2062.0	1985.9
18.93	2037.0	1985.2
18.94	2059.0	1984.4
18.95	2098.0	1983.7
18.96	2105.0	1983.0
18.97	2043.0	1982.2
18.98	2025.0	1981.5
18.99	2037.0	1980.7
19.0	2021.0	1979.9
19.01	2036.0	1979.2
19.02	2033.0	1978.4
19.03	2070.0	1977.7
19.04	2098.0	1976.9
19.05	2076.0	1976.1
19.06	2061.0	1975.3
19.07	2045.0	1974.6
19.08	2024.0	1973.8
19.09	2015.0	1973.0
19.1	2000.0	1972.2
19.11	2014.0	1971.4
19.12	2050.0	1970.6
19.13	2035.0	1969.8
19.14	2025.0	1969.0
19.15	2008.0	1968.2
19.16	2027.0	1967.4
19.17	2044.0	1966.5
19.18	2001.0	1965.7
19.19	2007.0	1964.9
19.2	1991.0	1964.1
19.21	1994.0	1963.2
19.22	2012.0	1962.4
19.23	2007.0	1961.6
19.24	2075.0	1960.7
19.25	2117.0	1959.9
19.26	2028.0	1959.0
19.27	1973.0	1958.2
19.28	1999.0	1957.3
19.29	1989.0	1956.5
19.3	1961.0	1955.6
19.31	1999.0	1954.7
19.32	1993.0	1953.9
19.33	1954.0	1953.0
19.34	1926.0	1952.1
19.35	1939.0	1951.2
19.36	1990.0	1950.3
19.37	1992.0	1949.4
19.38	1949.0	1948.6
19.39	1957.0	1947.7
19.4	1947.0	1946.8
19.41	1987.0	1945.9
19.42	2016.0	1944.9
19.43	2025.0	1944.0
19.44	2019.0	1943.1
19.45	1959.0	1942.2
19.46	1958.0	1941.3
19.47	1943.0	1940.4
19.48	1944.0	1939.4
19.49	1909.0	1938.5
19.5	1943.0	1937.6
19.51	1991.0	1936.6
19.52	2000.0	1935.7
19.53	1952.0	1934.7
19.54	1940.0	1933.8
19.55	1989.0	1932.8
19.56	2003.0	1931.8
19.57	2002.0	1930.9
19.58	1991.0	1929.9
19.59	1971.0	1928.9
19.6	1970.0	1928.0
19.61	1964.0	1927.0
19.62	1954.0	1926.0
19.63	1923.0	1925.0
19.64	1934.0	1924.0
19.65	1931.0	1923.0
19.66	1906.0	1922.0
19.67	1894.0	1921.0
19.68	1930.0	1920.0
19.69	1955.0	1919.0
19.7	1953.0	1918.0
19.71	1935.0	1917.0
19.72	1912.0	1916.0
19.73	1898.0	1915.0
19.74	1934.0	1913.9
19.75	1938.0	1912.9
19.76	1935.0	1911.9
19.77	1951.0	1910.8
19.78	1957.0	1909.8
19.79	1974.0	1908.7
19.8	1976.0	1907.7
19.81	1936.0	1906.6
19.82	1928.0	1905.6
19.83	1947.0	1904.5
19.84	1883.0	1903.4
19.85	1890.0	1902.4
19.86	1938.0	1901.3
19.87	1933.0	1900.2
19.88	1924.0	1899.1
19.89	1914.0	1898.0
19.9	1938.0	1897.0
19.91	1929.0	1895.9
19.92	1914.0	1894.8
19.93	1926.0	1893.7
19.94	1941.0	1892.6
19.95	1935.0	1891.5
19.96	1956.0	1890.3
19.97	1961.0	1889.2
19.98	1957.0	1888.1
19.99	1970.0	1887.0
20.0	1986.0	1885.9
20.01	1945.0	1884.7
20.02	1934.0	1883.6
20.03	1954.0	1882.5
20.04	1998.0	1881.3
20.05	1962.0	1880.2
20.06	1972.0	1879.0
20.07	1976.0	1877.9
20.08	1983.0	1876.7
20.09	1988.0	1875.6
20.1	1999.0	1874.4
20.11	1994.0	1873.3
20.12	1995.0	1872.1
20.13	1993.0	1870.9
20.14	1996.0	1869.7
20.15	2023.0	1868.6
20.16	2033.0	1867.4
20.17	1987.0	1866.2
20.18	1975.0	1865.0
20.19	1983.0	1863.8
20.2	1972.0	1862.6
20.21	1957.0	1861.5
20.22	1972.0	1860.3
20.23	1981.0	1859.1
20.24	2012.0	1857.8
20.25	2018.0	1856.6
20.26	2020.0	1855.4
20.27	2014.0	1854.2
20.28	1966.0	1853.0
20.29	1971.0	1851.8
20.3	1987.0	1850.6
20.31	1953.0	1849.3
20.32	1983.0	1848.1
20.33	1946.0	1846.9
20.34	1927.0	1845.7
20.35	1961.0	1844.4
20.36	1966.0	1843.2
20.37	1981.0	1841.9
20.38	1985.0	1840.7
20.39	1955.0	1839.4
20.4	1942.0	1838.2
20.41	1954.0	1836.9
20.42	1949.0	1835.7
20.43	1970.0	1834.4
20.44	1954.0	1833.2
20.45	1917.0	1831.9
20.46	1918.0	1830.7
20.47	1930.0	1829.4
20.48	1976.0	1828.1
20.49	1928.0	1826.8
20.5	1913.0	1825.6
20.51	1887.0	1824.3
20.52	1946.0	1823.0
20.53	1936.0	1821.7
20.54	1916.0	1820.5
20.55	1899.0	1819.2
20.56	1938.0	1817.9
20.57	1971.0	1816.6
20.58	1926.0	1815.3
20.59	1880.0	1814.0
20.6	1896.0	1812.7
20.61	1924.0	1811.4
20.62	1947.0	1810.1
20.63	1959.0	1808.8
20.64	1932.0	1807.5
20.65	1896.0	1806.2
20.66	1869.0	1804.9
20.67	1907.0	1803.6
20.68	1893.0	1802.2
20.69	1907.0	1800.9
20.7	1891.0	1799.6
20.71	1946.0	1798.3
20.72	1914.0	1797.0
20.73	1895.0	1795.6
20.74	1835.0	1794.3
20.75	1863.0	1793.0
20.76	1920.0	1791.7
20.77	1902.0	1790.3
20.78	1898.0	1789.0
20.79	1863.0	1787.7
20.8	1855.0	1786.3
20.81	1870.0	1785.0
20.82	1874.0	1783.6
20.83	1838.0	1782.3
20.84	1863.0	1781.0
20.85	1881.0	1779.6
20.86	1867.0	1778.3
20.87	1842.0	1776.9
20.88	1832.0	1775.6
20.89	1789.0	1774.2
20.9	1840.0	1772.9
20.91	1854.0	1771.5
20.92	1902.0	1770.2
20.93	1889.0	1768.8
20.94	1878.0	1767.4
20.95	1815.0	1766.1
20.96	1816.0	1764.7
20.97	1825.0	1763.4
20.98	1848.0	1762.0
20.99	1854.0	1760.6
21.0	1846.0	1759.3
21.01	1828.0	1757.9
21.02	1828.0	1756.5
21.03	1842.0	1755.1
21.04	1843.0	1753.8
21.05	1839.0	1752.4
21.06	1851.0	1751.0
21.07	1829.0	1749.6
21.08	1799.0	1748.3
21.09	1821.0	1746.9
21.1	1844.0	1745.5
21.11	1883.0	1744.1
21.12	1837.0	1742.7
21.13	1841.0	1741.4
21.14	1825.0	1740.0
21.15	1798.0	1738.6
21.16	1786.0	1737.2
21.17	1857.0	1735.8
21.18	1886.0	1734.4
21.19	1831.0	1733.0
21.2	1828.0	1731.7
21.21	1813.0	1730.3
21.22	1799.0	1728.9
21.23	1793.0	1727.5
21.24	1809.0	1726.1
21.25	1790.0	1724.7
21.26	1802.0	1723.3
21.27	1793.0	1721.9
21.28	1807.0	1720.5
21.29	1780.0	1719.1
21.3	1793.0	1717.7
21.31	1793.0	1716.3
21.32	1769.0	1714.9
21.33	1759.0	1713.5
21.34	1804.0	1712.1
21.35	1771.0	1710.7
21.36	1764.0	1709.3
21.37	1790.0	1707.9
21.38	1799.0	1706.5
21.39	1791.0	1705.1
21.4	1759.0	1703.7
21.41	1710.0	1702.3
21.42	1734.0	1700.9
21.43	1779.0	1699.5
21.44	1786.0	1698.1
21.45	1742.0	1696.7
21.46	1743.0	1695.3
21.47	1738.0	1693.9
21.48	1722.0	1692.5
21.49	1764.0	1691.1
21.5	1781.0	1689.6
21.51	1776.0	1688.2
21.52	1744.0	1686.8
21.53	1718.0	1685.4
21.54	1740.0	1684.0
21.55	1748.0	1682.6
21.56	1740.0	1681.2
21.57	1766.0	1679.8
21.58	1718.0	1678.4
21.59	1712.0	1677.0
21.6	1749.0	1675.6
21.61	1734.0	1674.2
21.62	1741.0	1672.8
21.63	1707.0	1671.4
21.64	1701.0	1669.9
21.65	1681.0	1668.5
21.66	1686.0	1667.1
21.67	1686.0	1665.7
21.68	1757.0	1664.3
21.69	1758.0	1662.9
21.7	1730.0	1661.5
21.71	1716.0	1660.1
21.72	1708.0	1658.7
21.73	1763.0	1657.3
21.74	1706.0	1655.9
21.75	1723.0	1654.5
21.76	1770.0	1653.1
21.77	1758.0	1651.7
21.78	1698.0	1650.3
21.79	1693.0	1648.9
21.8	1692.0	1647.5
21.81	1720.0	1646.1
21.82	1711.0	1644.7
21.83	1671.0	1643.2
21.84	1693.0	1641.8
21.85	1624.0	1640.4
21.86	1648.0	1639.0
21.87	1678.0	1637.6
21.88	1696.0	1636.2
21.89	1702.0	1634.8
21.9	1696.0	1633.5
21.91	1696.0	1632.1
21.92	1672.0	1630.7
21.93	1709.0	1629.3
21.94	1672.0	1627.9
21.95	1651.0	1626.5
21.96	1623.0	1625.1
21.97	1632.0	1623.7
21.98	1648.0	1622.3
21.99	1648.0	1620.9
22.0	1622.0	1619.5
22.01	1644.0	1618.1
22.02	1642.0	1616.7
22.03	1653.0	1615.3
22.04	1629.0	1614.0
22.05	1623.0	1612.6
22.06	1659.0	1611.2
22.07	1711.0	1609.8
22.08	1678.0	1608.4
22.09	1659.0	1607.0
22.1	1668.0	1605.7
22.11	1650.0	1604.3
22.12	1646.0	1602.9
22.13	1651.0	1601.5
22.14	1664.0	1600.2
22.15	1731.0	1598.8
22.16	1662.0	1597.4
22.17	1673.0	1596.0
22.18	1658.0	1594.7
22.19	1580.0	1593.3
22.2	1564.0	1591.9
22.21	1611.0	1590.6
22.22	1661.0	1589.2
22.23	1668.0	1587.8
22.24	1570.0	1586.5
22.25	1613.0	1585.1
22.26	1652.0	1583.7
22.27	1608.0	1582.4
22.28	1558.0	1581.0
22.29	1600.0	1579.7
22.3	1641.0	1578.3
22.31	1627.0	1577.0
22.32	1632.0	1575.6
22.33	1585.0	1574.3
22.34	1610.0	1572.9
22.35	1608.0	1571.6
22.36	1633.0	1570.2
22.37	1573.0	1568.9
22.38	1571.0	1567.5
22.39	1528.0	1566.2
22.4	1568.0	1564.9
22.41	1620.0	1563.5
22.42	1608.0	1562.2
22.43	1557.0	1560.9
22.44	1598.0	1559.5
22.45	1589.0	1558.2
22.46	1536.0	1556.9
22.47	1598.0	1555.5
22.48	1593.0	1554.2
22.49	1586.0	1552.9
22.5	1595.0	1551.6
22.51	1612.0	1550.3
22.52	1620.0	1548.9
22.53	1621.0	1547.6
22.54	1614.0	1546.3
22.55	1596.0	1545.0
22.56	1568.0	1543.7
22.57	1551.0	1542.4
22.58	1569.0	1541.1
22.59	1556.0	1539.8
22.6	1552.0	1538.5
22.61	1581.0	1537.2
22.62	1574.0	1535.9
22.63	1615.0	1534.6
22.64	1587.0	1533.3
22.65	1589.0	1532.0
22.66	1546.0	1530.7
22.67	1555.0	1529.4
22.68	1537.0	1528.1
22.69	1525.0	1526.8
22.7	1541.0	1525.5
22.71	1544.0	1524.2
22.72	1540.0	1523.0
22.73	1564.0	1521.7
22.74	1590.0	1520.4
22.75	1618.0	1519.1
22.76	1609.0	1517.8
22.77	1545.0	1516.6
22.78	1576.0	1515.3
22.79	1580.0	1514.0
22.8	1529.0	1512.8
22.81	1512.0	1511.5
22.82	1536.0	1510.2
22.83	1528.0	1509.0
22.84	1500.0	1507.7
22.85	1597.0	1506.4
22.86	1548.0	1505.2
22.87	1503.0	1503.9
22.88	1529.0	1502.7
22.89	1512.0	1501.4
22.9	1576.0	1500.2
22.91	1595.0	1498.9
22.92	1547.0	1497.7
22.93	1550.0	1496.4
22.94	1567.0	1495.2
22.95	1520.0	1493.9
22.96	1497.0	1492.7
22.97	1546.0	1491.4
22.98	1588.0	1490.2
22.99	1507.0	1489.0
23.0	1492.0	1487.7
23.01	1523.0	1486.5
23.02	1532.0	1485.3
23.03	1517.0	1484.0
23.04	1519.0	1482.8
23.05	1519.0	1481.6
23.06	1531.0	1480.3
23.07	1549.0	1479.1
23.08	1511.0	1477.9
23.09	1502.0	1476.7
23.1	1509.0	1475.5
23.11	1507.0	1474.2
23.12	1529.0	1473.0
23.13	1548.0	1471.8
23.14	1496.0	1470.6
23.15	1478.0	1469.4
23.16	1514.0	1468.2
23.17	1539.0	1467.0
23.18	1565.0	1465.8
23.19	1552.0	1464.5
23.2	1530.0	1463.3
23.21	1521.0	1462.1
23.22	1532.0	1460.9
23.23	1498.0	1459.7
23.24	1481.0	1458.5
23.25	1496.0	1457.3
23.26	1477.0	1456.2
23.27	1475.0	1455.0
23.28	1538.0	1453.8
23.29	1509.0	1452.6
23.3	1503.0	1451.4
23.31	1540.0	1450.2
23.32	1539.0	1449.0
23.33	1533.0	1447.8
23.34	1515.0	1446.7
23.35	1501.0	1445.5
23.36	1483.0	1444.3
23.37	1500.0	1443.1
23.38	1529.0	1442.0
23.39	1507.0	1440.8
23.4	1486.0	1439.6
23.41	1479.0	1438.4
23.42	1440.0	1437.3
23.43	1453.0	1436.1
23.44	1529.0	1434.9
23.45	1495.0	1433.8
23.46	1478.0	1432.6
23.47	1499.0	1431.4
23.48	1475.0	1430.3
23.49	1477.0	1429.1
23.5	1500.0	1428.0
23.51	1459.0	1426.8
23.52	1482.0	1425.7
23.53	1510.0	1424.5
23.54	1489.0	1423.4
23.55	1459.0	1422.2
23.56	1455.0	1421.1
23.57	1474.0	1419.9
23.58	1514.0	1418.8
23.59	1513.0	1417.6
23.6	1474.0	1416.5
23.61	1504.0	1415.4
23.62	1514.0	1414.2
23.63	1488.0	1413.1
23.64	1463.0	1412.0
23.65	1410.0	1410.8
23.66	1433.0	1409.7
23.67	1429.0	1408.6
23.68	1454.0	1407.4
23.69	1414.0	1406.3
23.7	1412.0	1405.2
23.71	1464.0	1404.1
23.72	1494.0	1402.9
23.73	1508.0	1401.8
23.74	1491.0	1400.7
23.75	1497.0	1399.6
23.76	1502.0	1398.5
23.77	1502.0	1397.4
23.78	1471.0	1396.2
23.79	1443.0	1395.1
23.8	1442.0	1394.0
23.81	1441.0	1392.9
23.82	1441.0	1391.8
23.83	1451.0	1390.7
23.84	1456.0	1389.6
23.85	1450.0	1388.5
23.86	1451.0	1387.4
23.87	1431.0	1386.3
23.88	1412.0	1385.2
23.89	1399.0	1384.1
23.9	1442.0	1383.0
23.91	1443.0	1381.9
23.92	1433.0	1380.8
23.93	1418.0	1379.7
23.94	1351.0	1378.6
23.95	1381.0	1377.6
23.96	1426.0	1376.5
23.97	1379.0	1375.4
23.98	1375.0	1374.3
23.99	1402.0	1373.2
24.0	1416.0	1372.1
24.01	1470.0	1371.1
24.02	1459.0	1370.0
24.03	1389.0	1368.9
24.04	1383.0	1367.8
24.05	1430.0	1366.8
24.06	1425.0	1365.7
24.07	1460.0	1364.6
24.08	1395.0	1363.6
24.09	1362.0	1362.5
24.1	1398.0	1361.4
24.11	1358.0	1360.4
24.12	1402.0	1359.3
24.13	1434.0	1358.2
24.14	1420.0	1357.2
24.15	1446.0	1356.1
24.16	1431.0	1355.1
24.17	1427.0	1354.0
24.18	1420.0	1353.0
24.19	1386.0	1351.9
24.2	1363.0	1350.9
24.21	1366.0	1349.8
24.22	1393.0	1348.8
24.23	1417.0	1347.7
24.24	1383.0	1346.7
24.25	1412.0	1345.6
24.26	1385.0	1344.6
24.27	1361.0	1343.5
24.28	1366.0	1342.5
24.29	1411.0	1341.5
24.3	1391.0	1340.4
24.31	1413.0	1339.4
24.32	1417.0	1338.4
24.33	1403.0	1337.3
24.34	1402.0	1336.3
24.35	1368.0	1335.3
24.36	1391.0	1334.2
24.37	1387.0	1333.2
24.38	1425.0	1332.2
24.39	1408.0	1331.2
24.4	1403.0	1330.2
24.41	1363.0	1329.1
24.42	1351.0	1328.1
24.43	1357.0	1327.1
24.44	1376.0	1326.1
24.45	1403.0	1325.1
24.46	1402.0	1324.1
24.47	1370.0	1323.0
24.48	1374.0	1322.0
24.49	1415.0	1321.0
24.5	1391.0	1320.0
24.51	1376.0	1319.0
24.52	1414.0	1318.0
24.53	1382.0	1317.0
24.54	1380.0	1316.0
24.55	1397.0	1315.0
24.56	1401.0	1314.0
24.57	1387.0	1313.0
24.58	1382.0	1312.0
24.59	1360.0	1311.0
24.6	1367.0	1310.0
24.61	1386.0	1309.0
24.62	1369.0	1308.0
24.63	1350.0	1307.0
24.64	1366.0	1306.1
24.65	1366.0	1305.1
24.66	1360.0	1304.1
24.67	1324.0	1303.1
24.68	1318.0	1302.1
24.69	1328.0	1301.1
24.7	1350.0	1300.2
24.71	1359.0	1299.2
24.72	1358.0	1298.2
24.73	1380.0	1297.2
24.74	1376.0	1296.3
24.75	1364.0	1295.3
24.76	1343.0	1294.3
24.77	1351.0	1293.3
24.78	1354.0	1292.4
24.79	1362.0	1291.4
24.8	1327.0	1290.4
24.81	1345.0	1289.5
24.82	1344.0	1288.5
24.83	1335.0	1287.5
24.84	1349.0	1286.6
24.85	1372.0	1285.6
24.86	1388.0	1284.7
24.87	1377.0	1283.7
24.88	1341.0	1282.8
24.89	1374.0	1281.8
24.9	1375.0	1280.9
24.91	1386.0	1279.9
24.92	1402.0	1279.0
24.93	1376.0	1278.0
24.94	1365.0	1277.1
24.95	1395.0	1276.1
24.96	1365.0	1275.2
24.97	1378.0	1274.2
24.98	1367.0	1273.3
24.99	1367.0	1272.3
25.0	1398.0	1271.4
25.01	1423.0	1270.5
25.02	1409.0	1269.5
25.03	1392.0	1268.6
25.04	1381.0	1267.7
25.05	1378.0	1266.7
25.06	1395.0	1265.8
25.07	1437.0	1264.9
25.08	1428.0	1263.9
25.09	1437.0	1263.0
25.1	1457.0	1262.1
25.11	1456.0	1261.2
25.12	1449.0	1260.2
25.13	1423.0	1259.3
25.14	1434.0	1258.4
25.15	1483.0	1257.5
25.16	1533.0	1256.6
25.17	1526.0	1255.6
25.18	1539.0	1254.7
25.19	1540.0	1253.8
25.2	1545.0	1252.9
25.21	1548.0	1252.0
25.22	1544.0	1251.1
25.23	1571.0	1250.2
25.24	1578.0	1249.3
25.25	1560.0	1248.4
25.26	1567.0	1247.4
25.27	1592.0	1246.5
25.28	1620.0	1245.6
25.29	1648.0	1244.7
25.3	1643.0	1243.8
25.31	1609.0	1242.9
25.32	1614.0	1242.0
25.33	1612.0	1241.1
25.34	1602.0	1240.3
25.35	1592.0	1239.4
25.36	1568.0	1238.5
25.37	1557.0	1237.6
25.38	1562.0	1236.7
25.39	1561.0	1235.8
25.4	1546.0	1234.9
25.41	1486.0	1234.0
25.42	1445.0	1233.1
25.43	1423.0	1232.3
25.44	1435.0	1231.4
25.45	1426.0	1230.5
25.46	1393.0	1229.6
25.47	1374.0	1228.7
25.48	1359.0	1227.9
25.49	1363.0	1227.0
25.5	1339.0	1226.1
25.51	1329.0	1225.2
25.52	1338.0	1224.4
25.53	1350.0	1223.5
25.54	1363.0	1222.6
25.55	1374.0	1221.7
25.56	1364.0	1220.9
25.57	1374.0	1220.0
25.58	1342.0	1219.1
25.59	1297.0	1218.3
25.6	1269.0	1217.4
25.61	1295.0	1216.6
25.62	1292.0	1215.7
25.63	1264.0	1214.8
25.64	1262.0	1214.0
25.65	1274.0	1213.1
25.66	1278.0	1212.3
25.67	1287.0	1211.4
25.68	1296.0	1210.6
25.69	1299.0	1209.7
25.7	1270.0	1208.9
25.71	1238.0	1208.0
25.72	1297.0	1207.2
25.73	1314.0	1206.3
25.74	1279.0	1205.5
25.75	1278.0	1204.6
25.76	1270.0	1203.8
25.77	1278.0	1202.9
25.78	1275.0	1202.1
25.79	1299.0	1201.3
25.8	1282.0	1200.4
25.81	1286.0	1199.6
25.82	1289.0	1198.8
25.83	1271.0	1197.9
25.84	1261.0	1197.1
25.85	1270.0	1196.3
25.86	1258.0	1195.4
25.87	1242.0	1194.6
25.88	1252.0	1193.8
25.89	1246.0	1192.9
25.9	1242.0	1192.1
25.91	1252.0	1191.3
25.92	1245.0	1190.5
25.93	1232.0	1189.6
25.94	1242.0	1188.8
25.95	1259.0	1188.0
25.96	1255.0	1187.2
25.97	1226.0	1186.4
25.98	1261.0	1185.5
25.99	1271.0	1184.7
26.0	1234.0	1183.9
26.01	1235.0	1183.1
26.02	1228.0	1182.3
26.03	1205.0	1181.5
26.04	1239.0	1180.7
26.05	1245.0	1179.9
26.06	1224.0	1179.1
26.07	1226.0	1178.2
26.08	1257.0	1177.4
26.09	1282.0	1176.6
26.1	1270.0	1175.8
26.11	1248.0	1175.0
26.12	1243.0	1174.2
26.13	1234.0	1173.4
26.14	1208.0	1172.6
26.15	1206.0	1171.8
26.16	1216.0	1171.0
26.17	1210.0	1170.2
26.18	1222.0	1169.5
26.19	1225.0	1168.7
26.2	1235.0	1167.9
26.21	1239.0	1167.1
26.22	1226.0	1166.3
26.23	1197.0	1165.5
26.24	1179.0	1164.7
26.25	1182.0	1163.9
26.26	1208.0	1163.1
26.27	1186.0	1162.4
26.28	1179.0	1161.6
26.29	1219.0	1160.8
26.3	1212.0	1160.0
26.31	1191.0	1159.2
26.32	1197.0	1158.5
26.33	1204.0	1157.7
26.34	1218.0	1156.9
26.35	1229.0	1156.1
26.36	1199.0	1155.4
26.37	1191.0	1154.6
26.38	1232.0	1153.8
26.39	1241.0	1153.0
26.4	1228.0	1152.3
26.41	1247.0	1151.5
26.42	1233.0	1150.7
26.43	1233.0	1150.0
26.44	1213.0	1149.2
26.45	1177.0	1148.4
26.46	1193.0	1147.7
26.47	1186.0	1146.9
26.48	1194.0	1146.2
26.49	1205.0	1145.4
26.5	1189.0	1144.6
26.51	1184.0	1143.9
26.52	1169.0	1143.1
26.53	1198.0	1142.4
26.54	1231.0	1141.6
26.55	1210.0	1140.9
26.56	1185.0	1140.1
26.57	1175.0	1139.4
26.58	1188.0	1138.6
26.59	1189.0	1137.9
26.6	1174.0	1137.1
26.61	1198.0	1136.4
26.62	1211.0	1135.6
26.63	1224.0	1134.9
26.64	1230.0	1134.1
26.65	1203.0	1133.4
26.66	1216.0	1132.7
26.67	1228.0	1131.9
26.68	1207.0	1131.2
26.69	1184.0	1130.4
26.7	1193.0	1129.7
26.71	1210.0	1129.0
26.72	1197.0	1128.2
26.73	1167.0	1127.5
26.74	1174.0	1126.8
26.75	1178.0	1126.0
26.76	1152.0	1125.3
26.77	1141.0	1124.6
26.78	1162.0	1123.9
26.79	1198.0	1123.1
26.8	1203.0	1122.4
26.81	1181.0	1121.7
26.82	1177.0	1120.9
26.83	1173.0	1120.2
26.84	1149.0	1119.5
26.85	1152.0	1118.8
26.86	1194.0	1118.1
26.87	1198.0	1117.3
26.88	1165.0	1116.6
26.89	1162.0	1115.9
26.9	1179.0	1115.2
26.91	1176.0	1114.5
26.92	1166.0	1113.8
26.93	1153.0	1113.1
26.94	1152.0	1112.3
26.95	1176.0	1111.6
26.96	1178.0	1110.9
26.97	1163.0	1110.2
26.98	1145.0	1109.5
26.99	1139.0	1108.8
27.0	1143.0	1108.1
27.01	1153.0	1107.4
27.02	1152.0	1106.7
27.03	1160.0	1106.0
27.04	1192.0	1105.3
27.05	1171.0	1104.6
27.06	1160.0	1103.9
27.07	1174.0	1103.2
27.08	1154.0	1102.5
27.09	1125.0	1101.8
27.1	1123.0	1101.1
27.11	1136.0	1100.4
27.12	1150.0	1099.7
27.13	1140.0	1099.0
27.14	1121.0	1098.3
27.15	1125.0	1097.6
27.16	1133.0	1096.9
27.17	1139.0	1096.2
27.18	1134.0	1095.6
27.19	1116.0	1094.9
27.2	1099.0	1094.2
27.21	1114.0	1093.5
27.22	1138.0	1092.8
27.23	1142.0	1092.1
27.24	1125.0	1091.4
27.25	1124.0	1090.8
27.26	1152.0	1090.1
27.27	1160.0	1089.4
27.28	1123.0	1088.7
27.29	1108.0	1088.1
27.3	1143.0	1087.4
27.31	1139.0	1086.7
27.32	1129.0	1086.0
27.33	1140.0	1085.4
27.34	1134.0	1084.7
27.35	1125.0	1084.0
27.36	1110.0	1083.3
27.37	1078.0	1082.7
27.38	1071.0	1082.0
27.39	1086.0	1081.3
27.4	1094.0	1080.7
27.41	1101.0	1080.0
27.42	1103.0	1079.3
27.43	1091.0	1078.7
27.44	1097.0	1078.0
27.45	1134.0	1077.3
27.46	1156.0	1076.7
27.47	1158.0	1076.0
27.48	1150.0	1075.4
27.49	1124.0	1074.7
27.5	1120.0	1074.0
27.51	1127.0	1073.4
27.52	1110.0	1072.7
27.53	1089.0	1072.1
27.54	1100.0	1071.4
27.55	1138.0	1070.8
27.56	1142.0	1070.1
27.57	1134.0	1069.5
27.58	1134.0	1068.8
27.59	1146.0	1068.2
27.6	1155.0	1067.5
27.61	1139.0	1066.9
27.62	1124.0	1066.2
27.63	1117.0	1065.6
27.64	1119.0	1064.9
27.65	1140.0	1064.3
27.66	1152.0	1063.7
27.67	1121.0	1063.0
27.68	1087.0	1062.4
27.69	1125.0	1061.7
27.7	1138.0	1061.1
27.71	1106.0	1060.5
27.72	1114.0	1059.8
27.73	1115.0	1059.2
27.74	1105.0	1058.5
27.75	1102.0	1057.9
27.76	1087.0	1057.3
27.77	1088.0	1056.6
27.78	1102.0	1056.0
27.79	1114.0	1055.4
27.8	1104.0	1054.8
27.81	1089.0	1054.1
27.82	1091.0	1053.5
27.83	1093.0	1052.9
27.84	1075.0	1052.2
27.85	1072.0	1051.6
27.86	1083.0	1051.0
27.87	1097.0	1050.4
27.88	1092.0	1049.7
27.89	1073.0	1049.1
27.9	1072.0	1048.5
27.91	1066.0	1047.9
27.92	1077.0	1047.3
27.93	1099.0	1046.6
27.94	1099.0	1046.0
27.95	1096.0	1045.4
27.96	1078.0	1044.8
27.97	1095.0	1044.2
27.98	1104.0	1043.6
27.99	1102.0	1043.0
28.0	1074.0	1042.3
28.01	1057.0	1041.7
28.02	1066.0	1041.1
28.03	1075.0	1040.5
28.04	1080.0	1039.9
28.05	1072.0	1039.3
28.06	1069.0	1038.7
28.07	1112.0	1038.1
28.08	1124.0	1037.5
28.09	1078.0	1036.9
28.1	1040.0	1036.3
28.11	1043.0	1035.7
28.12	1056.0	1035.1
28.13	1048.0	1034.5
28.14	1080.0	1033.9
28.15	1096.0	1033.3
28.16	1083.0	1032.7
28.17	1093.0	1032.1
28.18	1111.0	1031.5
28.19	1111.0	1030.9
28.2	1090.0	1030.3
28.21	1061.0	1029.7
28.22	1062.0	1029.1
28.23	1090.0	1028.5
28.24	1105.0	1027.9
28.25	1097.0	1027.3
28.26	1090.0	1026.7
28.27	1089.0	1026.1
28.28	1094.0	1025.5
28.29	1078.0	1025.0
28.3	1085.0	1024.4
28.31	1090.0	1023.8
28.32	1084.0	1023.2
28.33	1096.0	1022.6
28.34	1117.0	1022.0
28.35	1096.0	1021.4
28.36	1076.0	1020.9
28.37	1059.0	1020.3
28.38	1062.0	1019.7
28.39	1076.0	1019.1
28.4	1072.0	1018.5
28.41	1076.0	1018.0
28.42	1057.0	1017.4
28.43	1059.0	1016.8
28.44	1068.0	1016.2
28.45	1044.0	1015.7
28.46	1057.0	1015.1
28.47	1088.0	1014.5
28.48	1102.0	1013.9
28.49	1078.0	1013.4
28.5	1050.0	1012.8
28.51	1057.0	1012.2
28.52	1091.0	1011.7
28.53	1087.0	1011.1
28.54	1073.0	1010.5
28.55	1061.0	1010.0
28.56	1061.0	1009.4
28.57	1060.0	1008.8
28.58	1046.0	1008.3
28.59	1014.0	1007.7
28.6	1046.0	1007.1
28.61	1056.0	1006.6
28.62	1029.0	1006.0
28.63	1037.0	1005.5
28.64	1084.0	1004.9
28.65	1071.0	1004.3
28.66	1040.0	1003.8
28.67	1038.0	1003.2
28.68	1051.0	1002.7
28.69	1057.0	1002.1
28.7	1065.0	1001.6
28.71	1068.0	1001.0
28.72	1055.0	1000.5
28.73	1023.0	999.9
28.74	1014.0	999.3
28.75	1024.0	998.8
28.76	1032.0	998.2
28.77	1032.0	997.7
28.78	1055.0	997.2
28.79	1051.0	996.6
28.8	1022.0	996.1
28.81	1008.0	995.5
28.82	1027.0	995.0
28.83	1022.0	994.4
28.84	1005.0	993.9
28.85	1028.0	993.3
28.86	1050.0	992.8
28.87	1039.0	992.3
28.88	1028.0	991.7
28.89	1045.0	991.2
28.9	1063.0	990.6
28.91	1075.0	990.1
28.92	1057.0	989.6
28.93	1035.0	989.0
28.94	1044.0	988.5
28.95	1056.0	987.9
28.96	1021.0	987.4
28.97	1000.0	986.9
28.98	1006.0	986.3
28.99	1050.0	985.8
29.0	1075.0	985.3
29.01	1055.0	984.8
29.02	1044.0	984.2
29.03	1040.0	983.7
29.04	1025.0	983.2
29.05	1017.0	982.6
29.06	1012.0	982.1
29.07	1017.0	981.6
29.08	1028.0	981.1
29.09	1027.0	980.5
29.1	998.0	980.0
29.11	1002.0	979.5
29.12	1009.0	979.0
29.13	1011.0	978.4
29.14	1013.0	977.9
29.15	1044.0	977.4
29.16	1045.0	976.9
29.17	1024.0	976.4
29.18	1045.0	975.8
29.19	1031.0	975.3
29.2	1004.0	974.8
29.21	1023.0	974.3
29.22	1031.0	973.8
29.23	998.0	973.3
29.24	981.0	972.7
29.25	1025.0	972.2
29.26	1052.0	971.7
29.27	1036.0	971.2
29.28	995.0	970.7
29.29	966.0	970.2
29.3	975.0	969.7
29.31	1013.0	969.2
29.32	1006.0	968.7
29.33	1014.0	968.1
29.34	1052.0	967.6
29.35	1045.0	967.1
29.36	992.0	966.6
29.37	988.0	966.1
29.38	996.0	965.6
29.39	985.0	965.1
29.4	1027.0	964.6
29.41	1023.0	964.1
29.42	1022.0	963.6
29.43	995.0	963.1
29.44	968.0	962.6
29.45	994.0	962.1
29.46	982.0	961.6
29.47	994.0	961.1
29.48	996.0	960.6
29.49	1004.0	960.1
29.5	996.0	959.6
29.51	984.0	959.1
29.52	993.0	958.6
29.53	1003.0	958.1
29.54	1013.0	957.6
29.55	1002.0	957.2
29.56	984.0	956.7
29.57	990.0	956.2
29.58	984.0	955.7
29.59	998.0	955.2
29.6	1007.0	954.7
29.61	992.0	954.2
29.62	962.0	953.7
29.63	963.0	953.2
29.64	982.0	952.8
29.65	971.0	952.3
29.66	984.0	951.8
29.67	974.0	951.3
29.68	994.0	950.8
29.69	1027.0	950.3
29.7	1001.0	949.8
29.71	1018.0	949.4
29.72	1033.0	948.9
29.73	1027.0	948.4
29.74	1013.0	947.9
29.75	1013.0	947.4
29.76	1012.0	947.0
29.77	1009.0	946.5
29.78	996.0	946.0
29.79	967.0	945.5
29.8	987.0	945.1
29.81	1035.0	944.6
29.82	1024.0	944.1
29.83	970.0	943.6
29.84	947.0	943.2
29.85	982.0	942.7
29.86	1024.0	942.2
29.87	994.0	941.7
29.88	990.0	941.3
29.89	1007.0	940.8
29.9	1005.0	940.3
29.91	990.0	939.9
29.92	980.0	939.4
29.93	969.0	938.9
29.94	997.0	938.5
29.95	980.0	938.0
29.96	966.0	937.5
29.97	980.0	937.1
29.98	966.0	936.6
29.99	983.0	936.1
30.0	1003.0	935.7
30.01	970.0	935.2
30.02	999.0	934.7
30.03	1002.0	934.3
30.04	987.0	933.8
30.05	983.0	933.4
30.06	986.0	932.9
30.07	1009.0	932.4
30.08	987.0	932.0
30.09	1005.0	931.5
30.1	1016.0	931.1
30.11	988.0	930.6
30.12	962.0	930.2
30.13	963.0	929.7
30.14	1004.0	929.2
30.15	1005.0	928.8
30.16	1001.0	928.3
30.17	1004.0	927.9
30.18	962.0	927.4
30.19	983.0	927.0
30.2	993.0	926.5
30.21	968.0	926.1
30.22	991.0	925.6
30.23	968.0	925.2
30.24	957.0	924.7
30.25	976.0	924.3
30.26	1003.0	923.8
30.27	961.0	923.4
30.28	984.0	922.9
30.29	967.0	922.5
30.3	986.0	922.1
30.31	958.0	921.6
30.32	992.0	921.2
30.33	986.0	920.7
30.34	977.0	920.3
30.35	982.0	919.8
30.36	970.0	919.4
30.37	950.0	919.0
30.38	949.0	918.5
30.39	940.0	918.1
30.4	960.0	917.6
30.41	984.0	917.2
30.42	965.0	916.8
30.43	971.0	916.3
30.44	995.0	915.9
30.45	995.0	915.4
30.46	999.0	915.0
30.47	953.0	914.6
30.48	953.0	914.1
30.49	967.0	913.7
30.5	943.0	913.3
30.51	940.0	912.8
30.52	983.0	912.4
30.53	983.0	912.0
30.54	978.0	911.5
30.55	1001.0	911.1
30.56	1015.0	910.7
30.57	1010.0	910.2
30.58	965.0	909.8
30.59	972.0	909.4
30.6	976.0	909.0
30.61	931.0	908.5
30.62	930.0	908.1
30.63	973.0	907.7
30.64	979.0	907.3
30.65	960.0	906.8
30.66	970.0	906.4
30.67	1011.0	906.0
30.68	980.0	905.6
30.69	994.0	905.1
30.7	989.0	904.7
30.71	947.0	904.3
30.72	920.0	903.9
30.73	923.0	903.4
30.74	941.0	903.0
30.75	949.0	902.6
30.76	986.0	902.2
30.77	982.0	901.8
30.78	949.0	901.3
30.79	952.0	900.9
30.8	972.0	900.5
30.81	988.0	900.1
30.82	1000.0	899.7
30.83	994.0	899.3
30.84	920.0	898.8
30.85	941.0	898.4
30.86	950.0	898.0
30.87	973.0	897.6
30.88	978.0	897.2
30.89	977.0	896.8
30.9	949.0	896.4
30.91	918.0	896.0
30.92	931.0	895.5
30.93	945.0	895.1
30.94	938.0	894.7
30.95	917.0	894.3
30.96	949.0	893.9
30.97	954.0	893.5
30.98	955.0	893.1
30.99	933.0	892.7
31.0	928.0	892.3
31.01	931.0	891.9
31.02	917.0	891.5
31.03	925.0	891.0
31.04	934.0	890.6
31.05	933.0	890.2
31.06	940.0	889.8
31.07	961.0	889.4
31.08	954.0	889.0
31.09	966.0	888.6
31.1	942.0	888.2
31.11	942.0	887.8
31.12	938.0	887.4
31.13	971.0	887.0
31.14	936.0	886.6
31.15	949.0	886.2
31.16	965.0	885.8
31.17	915.0	885.4
31.18	946.0	885.0
31.19	909.0	884.6
31.2	898.0	884.2
31.21	926.0	883.8
31.22	925.0	883.4
31.23	918.0	883.0
31.24	949.0	882.6
31.25	942.0	882.2
31.26	964.0	881.8
31.27	945.0	881.5
31.28	935.0	881.1
31.29	958.0	880.7
31.3	929.0	880.3
31.31	934.0	879.9
31.32	946.0	879.5
31.33	954.0	879.1
31.34	949.0	878.7
31.35	954.0	878.3
31.36	913.0	877.9
31.37	921.0	877.5
31.38	940.0	877.1
31.39	921.0	876.8
31.4	908.0	876.4
31.41	931.0	876.0
31.42	920.0	875.6
31.43	907.0	875.2
31.44	933.0	874.8
31.45	930.0	874.4
31.46	914.0	874.0
31.47	921.0	873.7
31.48	942.0	873.3
31.49	957.0	872.9
31.5	928.0	872.5
31.51	909.0	872.1
31.52	932.0	871.7
31.53	927.0	871.4
31.54	910.0	871.0
31.55	900.0	870.6
31.56	906.0	870.2
31.57	903.0	869.8
31.58	916.0	869.4
31.59	887.0	869.1
31.6	897.0	868.7
31.61	934.0	868.3
31.62	949.0	867.9
31.63	922.0	867.5
31.64	935.0	867.2
31.65	938.0	866.8
31.66	937.0	866.4
31.67	932.0	866.0
31.68	923.0	865.7
31.69	957.0	865.3
31.7	915.0	864.9
31.71	910.0	864.5
31.72	922.0	864.2
31.73	886.0	863.8
31.74	925.0	863.4
31.75	916.0	863.0
31.76	890.0	862.7
31.77	875.0	862.3
31.78	894.0	861.9
31.79	914.0	861.5
31.8	893.0	861.2
31.81	877.0	860.8
31.82	895.0	860.4
31.83	922.0	860.1
31.84	915.0	859.7
31.85	879.0	859.3
31.86	894.0	859.0
31.87	914.0	858.6
31.88	922.0	858.2
31.89	902.0	857.8
31.9	883.0	857.5
31.91	874.0	857.1
31.92	906.0	856.7
31.93	878.0	856.4
31.94	862.0	856.0
31.95	879.0	855.6
31.96	868.0	855.3
31.97	934.0	854.9
31.98	896.0	854.6
31.99	859.0	854.2
32.0	867.0	853.8
32.01	934.0	853.5
32.02	929.0	853.1
32.03	885.0	852.7
32.04	853.0	852.4
32.05	899.0	852.0
32.06	917.0	851.7
32.07	918.0	851.3
32.08	892.0	850.9
32.09	856.0	850.6
32.1	895.0	850.2
32.11	893.0	849.8
32.12	888.0	849.5
32.13	853.0	849.1
32.14	859.0	848.8
32.15	846.0	848.4
32.16	857.0	848.1
32.17	840.0	847.7
32.18	865.0	847.3
32.19	824.0	847.0
32.2	850.0	846.6
32.21	882.0	846.3
32.22	854.0	845.9
32.23	858.0	845.6
32.24	917.0	845.2
32.25	905.0	844.8
32.26	876.0	844.5
32.27	898.0	844.1
32.28	894.0	843.8
32.29	865.0	843.4
32.3	826.0	843.1
32.31	853.0	842.7
32.32	878.0	842.4
32.33	884.0	842.0
32.34	859.0	841.7
32.35	850.0	841.3
32.36	850.0	841.0
32.37	857.0	840.6
32.38	890.0	840.3
32.39	887.0	839.9
32.4	853.0	839.6
32.41	871.0	839.2
32.42	900.0	838.9
32.43	858.0	838.5
32.44	798.0	838.2
32.45	800.0	837.8
32.46	869.0	837.5
32.47	846.0	837.1
32.48	876.0	836.8
32.49	920.0	836.4
32.5	908.0	836.1
32.51	909.0	835.7
32.52	852.0	835.4
32.53	861.0	835.0
32.54	889.0	834.7
32.55	888.0	834.3
32.56	883.0	834.0
32.57	860.0	833.7
32.58	836.0	833.3
32.59	841.0	833.0
32.6	867.0	832.6
32.61	860.0	832.3
32.62	873.0	831.9
32.63	861.0	831.6
32.64	875.0	831.3
32.65	858.0	830.9
32.66	870.0	830.6
32.67	845.0	830.2
32.68	829.0	829.9
32.69	813.0	829.5
32.7	824.0	829.2
32.71	853.0	828.9
32.72	818.0	828.5
32.73	810.0	828.2
32.74	841.0	827.8
32.75	834.0	827.5
32.76	829.0	827.2
32.77	832.0	826.8
32.78	826.0	826.5
32.79	822.0	826.2
32.8	803.0	825.8
32.81	830.0	825.5
32.82	836.0	825.1
32.83	802.0	824.8
32.84	800.0	824.5
32.85	835.0	824.1
32.86	845.0	823.8
32.87	828.0	823.5
32.88	840.0	823.1
32.89	856.0	822.8
32.9	861.0	822.4
32.91	855.0	822.1
32.92	844.0	821.8
32.93	808.0	821.4
32.94	829.0	821.1
32.95	830.0	820.8
32.96	803.0	820.4
32.97	796.0	820.1
32.98	803.0	819.8
32.99	854.0	819.4
33.0	840.0	819.1
33.01	829.0	818.8
33.02	843.0	818.4
33.03	842.0	818.1
33.04	832.0	817.8
33.05	822.0	817.4
33.06	792.0	817.1
33.07	791.0	816.8
33.08	804.0	816.5
33.09	817.0	816.1
33.1	812.0	815.8
33.11	813.0	815.5
33.12	835.0	815.1
33.13	840.0	814.8
33.14	833.0	814.5
33.15	811.0	814.1
33.16	781.0	813.8
33.17	803.0	813.5
33.18	821.0	813.2
33.19	864.0	812.8
33.2	832.0	812.5
33.21	811.0	812.2
33.22	793.0	811.8
33.23	811.0	811.5
33.24	858.0	811.2
33.25	824.0	810.9
33.26	783.0	810.5
33.27	784.0	810.2
33.28	802.0	809.9
33.29	802.0	809.6
33.3	799.0	809.2
33.31	821.0	808.9
33.32	806.0	808.6
33.33	796.0	808.3
33.34	810.0	807.9
33.35	806.0	807.6
33.36	792.0	807.3
33.37	809.0	807.0
33.38	794.0	806.6
33.39	824.0	806.3
33.4	827.0	806.0
33.41	811.0	805.7
33.42	780.0	805.3
33.43	777.0	805.0
33.44	790.0	804.7
33.45	795.0	804.4
33.46	814.0	804.0
33.47	805.0	803.7
33.48	834.0	803.4
33.49	854.0	803.1
33.5	799.0	802.8
33.51	792.0	802.4
33.52	805.0	802.1
33.53	790.0	801.8
33.54	795.0	801.5
33.55	798.0	801.1
33.56	784.0	800.8
33.57	786.0	800.5
33.58	818.0	800.2
33.59	778.0	799.9
33.6	812.0	799.5
33.61	836.0	799.2
33.62	833.0	798.9
33.63	812.0	798.6
33.64	828.0	798.3
33.65	827.0	797.9
33.66	828.0	797.6
33.67	802.0	797.3
33.68	833.0	797.0
33.69	824.0	796.7
33.7	828.0	796.4
33.71	818.0	796.0
33.72	818.0	795.7
33.73	811.0	795.4
33.74	807.0	795.1
33.75	811.0	794.8
33.76	814.0	794.4
33.77	835.0	794.1
33.78	816.0	793.8
33.79	769.0	793.5
33.8	805.0	793.2
33.81	828.0	792.9
33.82	804.0	792.5
33.83	819.0	792.2
33.84	837.0	791.9
33.85	801.0	791.6
33.86	779.0	791.3
33.87	794.0	791.0
33.88	785.0	790.6
33.89	799.0	790.3
33.9	799.0	790.0
33.91	820.0	789.7
33.92	829.0	789.4
33.93	818.0	789.1
33.94	809.0	788.8
33.95	821.0	788.4
33.96	833.0	788.1
33.97	813.0	787.8
33.98	799.0	787.5
33.99	812.0	787.2
34.0	830.0	786.9
34.01	850.0	786.6
34.02	813.0	786.2
34.03	797.0	785.9
34.04	823.0	785.6
34.05	840.0	785.3
34.06	808.0	785.0
34.07	808.0	784.7
34.08	828.0	784.4
34.09	811.0	784.0
34.1	807.0	783.7
34.11	815.0	783.4
34.12	816.0	783.1
34.13	806.0	782.8
34.14	796.0	782.5
34.15	799.0	782.2
34.16	782.0	781.9
34.17	796.0	781.5
34.18	813.0	781.2
34.19	819.0	780.9
34.2	810.0	780.6
34.21	775.0	780.3
34.22	785.0	780.0
34.23	811.0	779.7
34.24	800.0	779.4
34.25	797.0	779.0
34.26	802.0	778.7
34.27	822.0	778.4
34.28	833.0	778.1
34.29	805.0	777.8
34.3	798.0	777.5
34.31	796.0	777.2
34.32	796.0	776.9
34.33	812.0	776.6
34.34	792.0	776.3
34.35	791.0	775.9
34.36	782.0	775.6
34.37	778.0	775.3
34.38	801.0	775.0
34.39	817.0	774.7
34.4	816.0	774.4
34.41	804.0	774.1
34.42	811.0	773.8
34.43	801.0	773.5
34.44	784.0	773.1
34.45	794.0	772.8
34.46	775.0	772.5
34.47	768.0	772.2
34.48	777.0	771.9
34.49	769.0	771.6
34.5	782.0	771.3
34.51	798.0	771.0
34.52	802.0	770.7
34.53	761.0	770.4
34.54	755.0	770.1
34.55	787.0	769.7
34.56	783.0	769.4
34.57	797.0	769.1
34.58	822.0	768.8
34.59	819.0	768.5
34.6	798.0	768.2
34.61	779.0	767.9
34.62	766.0	767.6
34.63	753.0	767.3
34.64	778.0	767.0
34.65	768.0	766.7
34.66	765.0	766.3
34.67	766.0	766.0
34.68	767.0	765.7
34.69	789.0	765.4
34.7	817.0	765.1
34.71	824.0	764.8
34.72	819.0	764.5
34.73	789.0	764.2
34.74	801.0	763.9
34.75	805.0	763.6
34.76	809.0	763.3
34.77	789.0	763.0
34.78	781.0	762.6
34.79	788.0	762.3
34.8	795.0	762.0
34.81	798.0	761.7
34.82	788.0	761.4
34.83	761.0	761.1
34.84	766.0	760.8
34.85	801.0	760.5
34.86	809.0	760.2
34.87	802.0	759.9
34.88	771.0	759.6
34.89	767.0	759.3
34.9	791.0	758.9
34.91	793.0	758.6
34.92	763.0	758.3
34.93	782.0	758.0
34.94	794.0	757.7
34.95	801.0	757.4
34.96	813.0	757.1
34.97	800.0	756.8
34.98	785.0	756.5
34.99	786.0	756.2
35.0	790.0	755.9
35.01	811.0	755.6
35.02	814.0	755.3
35.03	791.0	754.9
35.04	763.0	754.6
35.05	763.0	754.3
35.06	781.0	754.0
35.07	775.0	753.7
35.08	771.0	753.4
35.09	784.0	753.1
35.1	783.0	752.8
35.11	782.0	752.5
35.12	812.0	752.2
35.13	820.0	751.9
35.14	815.0	751.6
35.15	811.0	751.2
35.16	810.0	750.9
35.17	814.0	750.6
35.18	800.0	750.3
35.19	774.0	750.0
35.2	800.0	749.7
35.21	807.0	749.4
35.22	793.0	749.1
35.23	806.0	748.8
35.24	825.0	748.5
35.25	803.0	748.2
35.26	810.0	747.9
35.27	824.0	747.5
35.28	817.0	747.2
35.29	799.0	746.9
35.3	796.0	746.6
35.31	809.0	746.3
35.32	810.0	746.0
35.33	824.0	745.7
35.34	814.0	745.4
35.35	814.0	745.1
35.36	824.0	744.8
35.37	826.0	744.5
35.38	814.0	744.2
35.39	815.0	743.8
35.4	811.0	743.5
35.41	806.0	743.2
35.42	824.0	742.9
35.43	853.0	742.6
35.44	850.0	742.3
35.45	838.0	742.0
35.46	843.0	741.7
35.47	855.0	741.4
35.48	848.0	741.1
35.49	828.0	740.8
35.5	824.0	740.4
35.51	854.0	740.1
35.52	853.0	739.8
35.53	835.0	739.5
35.54	842.0	739.2
35.55	855.0	738.9
35.56	877.0	738.6
35.57	869.0	738.3
35.58	856.0	738.0
35.59	838.0	737.7
35.6	858.0	737.3
35.61	872.0	737.0
35.62	872.0	736.7
35.63	879.0	736.4
35.64	890.0	736.1
35.65	908.0	735.8
35.66	892.0	735.5
35.67	876.0	735.2
35.68	879.0	734.9
35.69	888.0	734.6
35.7	902.0	734.3
35.71	917.0	733.9
35.72	913.0	733.6
35.73	905.0	733.3
35.74	916.0	733.0
35.75	923.0	732.7
35.76	941.0	732.4
35.77	962.0	732.1
35.78	934.0	731.8
35.79	926.0	731.5
35.8	936.0	731.2
35.81	930.0	730.8
35.82	920.0	730.5
35.83	940.0	730.2
35.84	977.0	729.9
35.85	997.0	729.6
35.86	1000.0	729.3
35.87	995.0	729.0
35.88	985.0	728.7
35.89	963.0	728.4
35.9	948.0	728.1
35.91	982.0	727.8
35.92	1006.0	727.4
35.93	986.0	727.1
35.94	988.0	726.8
35.95	997.0	726.5
35.96	987.0	726.2
35.97	978.0	725.9
35.98	998.0	725.6
35.99	990.0	725.3
36.0	958.0	725.0
36.01	966.0	724.7
36.02	973.0	724.4
36.03	989.0	724.0
36.04	990.0	723.7
36.05	978.0	723.4
36.06	984.0	723.1
36.07	970.0	722.8
36.08	940.0	722.5
36.09	930.0	722.2
36.1	945.0	721.9
36.11	949.0	721.6
36.12	935.0	721.3
36.13	944.0	721.0
36.14	933.0	720.7
36.15	917.0	720.3
36.16	919.0	720.0
36.17	922.0	719.7
36.18	909.0	719.4
36.19	884.0	719.1
36.2	872.0	718.8
36.21	868.0	718.5
36.22	840.0	718.2
36.23	821.0	717.9
36.24	849.0	717.6
36.25	870.0	717.3
36.26	863.0	717.0
36.27	862.0	716.7
36.28	865.0	716.4
36.29	856.0	716.0
36.3	841.0	715.7
36.31	836.0	715.4
36.32	834.0	715.1
36.33	828.0	714.8
36.34	820.0	714.5
36.35	810.0	714.2
36.36	785.0	713.9
36.37	770.0	713.6
36.38	788.0	713.3
36.39	812.0	713.0
36.4	823.0	712.7
36.41	832.0	712.4
36.42	826.0	712.1
36.43	809.0	711.8
36.44	800.0	711.5
36.45	798.0	711.1
36.46	797.0	710.8
36.47	798.0	710.5
36.48	777.0	710.2
36.49	749.0	709.9
36.5	762.0	709.6
36.51	791.0	709.3
36.52	792.0	709.0
36.53	775.0	708.7
36.54	774.0	708.4
36.55	785.0	708.1
36.56	788.0	707.8
36.57	799.0	707.5
36.58	794.0	707.2
36.59	776.0	706.9
36.6	778.0	706.6
36.61	784.0	706.3
36.62	794.0	706.0
36.63	806.0	705.7
36.64	790.0	705.4
36.65	766.0	705.1
36.66	751.0	704.8
36.67	739.0	704.5
36.68	760.0	704.2
36.69	771.0	703.9
36.7	771.0	703.6
36.71	765.0	703.3
36.72	753.0	703.0
36.73	769.0	702.7
36.74	785.0	702.4
36.75	788.0	702.1
36.76	765.0	701.8
36.77	760.0	701.5
36.78	780.0	701.2
36.79	768.0	700.9
36.8	763.0	700.6
36.81	785.0	700.3
36.82	799.0	700.0
36.83	795.0	699.7
36.84	789.0	699.4
36.85	776.0	699.1
36.86	771.0	698.8
36.87	795.0	698.5
36.88	794.0	698.2
36.89	776.0	697.9
36.9	760.0	697.6
36.91	754.0	697.3
36.92	767.0	697.0
36.93	766.0	696.7
36.94	771.0	696.4
36.95	777.0	696.1
36.96	778.0	695.8
36.97	786.0	695.5
36.98	779.0	695.2
36.99	771.0	694.9
37.0	765.0	694.6
37.01	777.0	694.3
37.02	772.0	694.0
37.03	753.0	693.7
37.04	795.0	693.4
37.05	811.0	693.1
37.06	773.0	692.8
37.07	755.0	692.5
37.08	751.0	692.2
37.09	741.0	691.9
37.1	747.0	691.6
37.11	758.0	691.3
37.12	772.0	691.0
37.13	791.0	690.8
37.14	772.0	690.5
37.15	742.0	690.2
37.16	723.0	689.9
37.17	712.0	689.6
37.18	713.0	689.3
37.19	727.0	689.0
37.2	740.0	688.7
37.21	736.0	688.4
37.22	742.0	688.1
37.23	755.0	687.8
37.24	761.0	687.5
37.25	739.0	687.3
37.26	726.0	687.0
37.27	735.0	686.7
37.28	751.0	686.4
37.29	746.0	686.1
37.3	734.0	685.8
37.31	744.0	685.5
37.32	734.0	685.2
37.33	730.0	684.9
37.34	740.0	684.6
37.35	757.0	684.4
37.36	756.0	684.1
37.37	736.0	683.8
37.38	752.0	683.5
37.39	768.0	683.2
37.4	762.0	682.9
37.41	754.0	682.6
37.42	750.0	682.3
37.43	738.0	682.1
37.44	730.0	681.8
37.45	764.0	681.5
37.46	758.0	681.2
37.47	732.0	680.9
37.48	767.0	680.6
37.49	808.0	680.3
37.5	810.0	680.1
37.51	772.0	679.8
37.52	752.0	679.5
37.53	747.0	679.2
37.54	771.0	678.9
37.55	781.0	678.6
37.56	800.0	678.4
37.57	805.0	678.1
37.58	792.0	677.8
37.59	789.0	677.5
37.6	775.0	677.2
37.61	766.0	677.0
37.62	773.0	676.7
37.63	771.0	676.4
37.64	746.0	676.1
37.65	738.0	675.8
37.66	751.0	675.6
37.67	749.0	675.3
37.68	743.0	675.0
37.69	757.0	674.7
37.7	753.0	674.4
37.71	748.0	674.2
37.72	741.0	673.9
37.73	753.0	673.6
37.74	748.0	673.3
37.75	758.0	673.1
37.76	762.0	672.8
37.77	743.0	672.5
37.78	736.0	672.2
37.79	750.0	671.9
37.8	759.0	671.7
37.81	765.0	671.4
37.82	769.0	671.1
37.83	777.0	670.8
37.84	776.0	670.6
37.85	750.0	670.3
37.86	728.0	670.0
37.87	739.0	669.8
37.88	755.0	669.5
37.89	768.0	669.2
37.9	758.0	668.9
37.91	749.0	668.7
37.92	733.0	668.4
37.93	725.0	668.1
37.94	698.0	667.9
37.95	713.0	667.6
37.96	724.0	667.3
37.97	743.0	667.0
37.98	761.0	666.8
37.99	749.0	666.5
38.0	739.0	666.2
38.01	719.0	666.0
38.02	713.0	665.7
38.03	717.0	665.4
38.04	742.0	665.2
38.05	755.0	664.9
38.06	727.0	664.6
38.07	717.0	664.4
38.08	717.0	664.1
38.09	665.0	663.8
38.1	676.0	663.6
38.11	704.0	663.3
38.12	719.0	663.0
38.13	729.0	662.8
38.14	734.0	662.5
38.15	733.0	662.3
38.16	711.0	662.0
38.17	672.0	661.7
38.18	681.0	661.5
38.19	691.0	661.2
38.2	667.0	660.9
38.21	665.0	660.7
38.22	689.0	660.4
38.23	707.0	660.2
38.24	701.0	659.9
38.25	666.0	659.6
38.26	659.0	659.4
38.27	686.0	659.1
38.28	682.0	658.9
38.29	676.0	658.6
38.3	702.0	658.4
38.31	685.0	658.1
38.32	691.0	657.8
38.33	700.0	657.6
38.34	671.0	657.3
38.35	683.0	657.1
38.36	683.0	656.8
38.37	666.0	656.6
38.38	670.0	656.3
38.39	697.0	656.1
38.4	700.0	655.8
38.41	685.0	655.6
38.42	677.0	655.3
38.43	682.0	655.1
38.44	684.0	654.8
38.45	684.0	654.6
38.46	687.0	654.3
38.47	674.0	654.1
38.48	684.0	653.8
38.49	690.0	653.6
38.5	695.0	653.3
38.51	710.0	653.1
38.52	691.0	652.8
38.53	692.0	652.6
38.54	698.0	652.3
38.55	683.0	652.1
38.56	674.0	651.8
38.57	684.0	651.6
38.58	712.0	651.3
38.59	679.0	651.1
38.6	638.0	650.8
38.61	658.0	650.6
38.62	664.0	650.4
38.63	656.0	650.1
38.64	674.0	649.9
38.65	679.0	649.6
38.66	671.0	649.4
38.67	680.0	649.1
38.68	710.0	648.9
38.69	717.0	648.7
38.7	702.0	648.4
38.71	672.0	648.2
38.72	651.0	648.0
38.73	682.0	647.7
38.74	678.0	647.5
38.75	670.0	647.2
38.76	654.0	647.0
38.77	637.0	646.8
38.78	651.0	646.5
38.79	681.0	646.3
38.8	695.0	646.1
38.81	679.0	645.8
38.82	656.0	645.6
38.83	676.0	645.4
38.84	699.0	645.1
38.85	689.0	644.9
38.86	666.0	644.7
38.87	660.0	644.4
38.88	676.0	644.2
38.89	665.0	644.0
38.9	647.0	643.7
38.91	656.0	643.5
38.92	646.0	643.3
38.93	622.0	643.1
38.94	646.0	642.8
38.95	653.0	642.6
38.96	665.0	642.4
38.97	649.0	642.1
38.98	635.0	641.9
38.99	653.0	641.7
39.0	661.0	641.5
39.01	651.0	641.2
39.02	661.0	641.0
39.03	660.0	640.8
39.04	653.0	640.6
39.05	655.0	640.3
39.06	667.0	640.1
39.07	668.0	639.9
39.08	661.0	639.7
39.09	665.0	639.5
39.1	668.0	639.2
39.11	655.0	639.0
39.12	664.0	638.8
39.13	677.0	638.6
39.14	625.0	638.4
39.15	635.0	638.2
39.16	631.0	637.9
39.17	658.0	637.7
39.18	668.0	637.5
39.19	685.0	637.3
39.2	699.0	637.1
39.21	681.0	636.9
39.22	675.0	636.7
39.23	662.0	636.4
39.24	657.0	636.2
39.25	659.0	636.0
39.26	642.0	635.8
39.27	659.0	635.6
39.28	678.0	635.4
39.29	682.0	635.2
39.3	653.0	635.0
39.31	613.0	634.8
39.32	637.0	634.5
39.33	671.0	634.3
39.34	675.0	634.1
39.35	663.0	633.9
39.36	670.0	633.7
39.37	680.0	633.5
39.38	670.0	633.3
39.39	620.0	633.1
39.4	629.0	632.9
39.41	641.0	632.7
39.42	638.0	632.5
39.43	635.0	632.3
39.44	662.0	632.1
39.45	653.0	631.9
39.46	658.0	631.7
39.47	667.0	631.5
39.48	652.0	631.3
39.49	631.0	631.1
39.5	639.0	630.9
39.51	650.0	630.7
39.52	644.0	630.5
39.53	637.0	630.3
39.54	646.0	630.1
39.55	652.0	629.9
39.56	656.0	629.7
39.57	666.0	629.5
39.58	657.0	629.3
39.59	648.0	629.2
39.6	660.0	629.0
39.61	661.0	628.8
39.62	630.0	628.6
39.63	645.0	628.4
39.64	618.0	628.2
39.65	631.0	628.0
39.66	663.0	627.8
39.67	672.0	627.6
39.68	663.0	627.5
39.69	652.0	627.3
39.7	650.0	627.1
39.71	654.0	626.9
39.72	649.0	626.7
39.73	656.0	626.5
39.74	680.0	626.4
39.75	662.0	626.2
39.76	662.0	626.0
39.77	661.0	625.8
39.78	686.0	625.6
39.79	669.0	625.4
39.8	660.0	625.3
39.81	658.0	625.1
39.82	673.0	624.9
39.83	649.0	624.7
39.84	644.0	624.6
39.85	654.0	624.4
39.86	653.0	624.2
39.87	664.0	624.0
39.88	661.0	623.9
39.89	650.0	623.7
39.9	651.0	623.5
39.91	646.0	623.3
39.92	657.0	623.2
39.93	661.0	623.0
39.94	626.0	622.8
39.95	641.0	622.7
39.96	641.0	622.5
39.97	647.0	622.3
39.98	649.0	622.2
39.99	662.0	622.0
40.0	651.0	621.8
40.01	631.0	621.7
40.02	620.0	621.5
40.03	646.0	621.3
40.04	650.0	621.2
40.05	659.0	621.0
40.06	663.0	620.8
40.07	647.0	620.7
40.08	652.0	620.5
40.09	658.0	620.4
40.1	652.0	620.2
40.11	666.0	620.0
40.12	646.0	619.9
40.13	634.0	619.7
40.14	632.0	619.6
40.15	663.0	619.4
40.16	664.0	619.3
40.17	650.0	619.1
40.18	629.0	619.0
40.19	592.0	618.8
40.2	611.0	618.6
40.21	641.0	618.5
40.22	658.0	618.3
40.23	630.0	618.2
40.24	617.0	618.0
40.25	645.0	617.9
40.26	638.0	617.7
40.27	604.0	617.6
40.28	596.0	617.5
40.29	605.0	617.3
40.3	641.0	617.2
40.31	653.0	617.0
40.32	628.0	616.9
40.33	618.0	616.7
40.34	627.0	616.6
40.35	630.0	616.4
40.36	638.0	616.3
40.37	634.0	616.2
40.38	636.0	616.0
40.39	662.0	615.9
40.4	646.0	615.7
40.41	642.0	615.6
40.42	608.0	615.5
40.43	659.0	615.3
40.44	646.0	615.2
40.45	648.0	615.1
40.46	676.0	614.9
40.47	663.0	614.8
40.48	645.0	614.7
40.49	656.0	614.5
40.5	658.0	614.4
40.51	642.0	614.3
40.52	640.0	614.1
40.53	646.0	614.0
40.54	658.0	613.9
40.55	637.0	613.7
40.56	645.0	613.6
40.57	652.0	613.5
40.58	626.0	613.4
40.59	632.0	613.2
40.6	670.0	613.1
40.61	679.0	613.0
40.62	633.0	612.9
40.63	626.0	612.7
40.64	629.0	612.6
40.65	626.0	612.5
40.66	641.0	612.4
40.67	603.0	612.2
40.68	620.0	612.1
40.69	623.0	612.0
40.7	634.0	611.9
40.71	608.0	611.8
40.72	636.0	611.6
40.73	681.0	611.5
40.74	664.0	611.4
40.75	655.0	611.3
40.76	650.0	611.2
40.77	637.0	611.1
40.78	640.0	610.9
40.79	637.0	610.8
40.8	646.0	610.7
40.81	625.0	610.6
40.82	628.0	610.5
40.83	651.0	610.4
40.84	655.0	610.3
40.85	610.0	610.2
40.86	628.0	610.0
40.87	668.0	609.9
40.88	676.0	609.8
40.89	628.0	609.7
40.9	644.0	609.6
40.91	625.0	609.5
40.92	634.0	609.4
40.93	628.0	609.3
40.94	644.0	609.2
40.95	631.0	609.1
40.96	644.0	609.0
40.97	670.0	608.9
40.98	655.0	608.8
40.99	654.0	608.7
41.0	652.0	608.6
41.01	623.0	608.5
41.02	636.0	608.4
41.03	632.0	608.3
41.04	680.0	608.2
41.05	670.0	608.1
41.06	670.0	608.0
41.07	643.0	607.9
41.08	645.0	607.8
41.09	679.0	607.7
41.1	662.0	607.6
41.11	642.0	607.5
41.12	626.0	607.4
41.13	658.0	607.3
41.14	641.0	607.2
41.15	621.0	607.1
41.16	642.0	607.0
41.17	657.0	606.9
41.18	653.0	606.8
41.19	661.0	606.7
41.2	652.0	606.6
41.21	656.0	606.5
41.22	641.0	606.5
41.23	645.0	606.4
41.24	651.0	606.3
41.25	663.0	606.2
41.26	641.0	606.1
41.27	646.0	606.0
41.28	659.0	605.9
41.29	637.0	605.8
41.3	671.0	605.7
41.31	646.0	605.7
41.32	670.0	605.6
41.33	645.0	605.5
41.34	644.0	605.4
41.35	636.0	605.3
41.36	651.0	605.2
41.37	667.0	605.2
41.38	662.0	605.1
41.39	671.0	605.0
41.4	677.0	604.9
41.41	659.0	604.8
41.42	643.0	604.7
41.43	626.0	604.7
41.44	626.0	604.6
41.45	659.0	604.5
41.46	659.0	604.4
41.47	639.0	604.4
41.48	634.0	604.3
41.49	649.0	604.2
41.5	701.0	604.1
41.51	681.0	604.0
41.52	638.0	604.0
41.53	672.0	603.9
41.54	682.0	603.8
41.55	683.0	603.7
41.56	676.0	603.7
41.57	688.0	603.6
41.58	674.0	603.5
41.59	668.0	603.5
41.6	654.0	603.4
41.61	649.0	603.3
41.62	645.0	603.2
41.63	670.0	603.2
41.64	678.0	603.1
41.65	690.0	603.0
41.66	704.0	603.0
41.67	665.0	602.9
41.68	655.0	602.8
41.69	649.0	602.8
41.7	613.0	602.7
41.71	634.0	602.6
41.72	645.0	602.5
41.73	675.0	602.5
41.74	678.0	602.4
41.75	685.0	602.4
41.76	690.0	602.3
41.77	691.0	602.2
41.78	684.0	602.2
41.79	683.0	602.1
41.8	681.0	602.0
41.81	698.0	602.0
41.82	673.0	601.9
41.83	662.0	601.8
41.84	698.0	601.8
41.85	684.0	601.7
41.86	695.0	601.7
41.87	682.0	601.6
41.88	685.0	601.5
41.89	705.0	601.5
41.9	733.0	601.4
41.91	718.0	601.4
41.92	684.0	601.3
41.93	697.0	601.2
41.94	728.0	601.2
41.95	673.0	601.1
41.96	696.0	601.1
41.97	732.0	601.0
41.98	732.0	601.0
41.99	737.0	600.9
42.0	745.0	600.8
42.01	716.0	600.8
42.02	722.0	600.7
42.03	748.0	600.7
42.04	739.0	600.6
42.05	729.0	600.6
42.06	716.0	600.5
42.07	741.0	600.5
42.08	737.0	600.4
42.09	730.0	600.4
42.1	722.0	600.3
42.11	719.0	600.3
42.12	713.0	600.2
42.13	739.0	600.2
42.14	777.0	600.1
42.15	764.0	600.1
42.16	709.0	600.0
42.17	729.0	600.0
42.18	722.0	599.9
42.19	751.0	599.9
42.2	770.0	599.8
42.21	786.0	599.8
42.22	790.0	599.7
42.23	761.0	599.7
42.24	742.0	599.6
42.25	754.0	599.6
42.26	789.0	599.5
42.27	801.0	599.5
42.28	798.0	599.4
42.29	808.0	599.4
42.3	769.0	599.3
42.31	747.0	599.3
42.32	762.0	599.3
42.33	812.0	599.2
42.34	830.0	599.2
42.35	817.0	599.1
42.36	797.0	599.1
42.37	803.0	599.0
42.38	797.0	599.0
42.39	780.0	599.0
42.4	835.0	598.9
42.41	825.0	598.9
42.42	839.0	598.8
42.43	857.0	598.8
42.44	849.0	598.8
42.45	822.0	598.7
42.46	834.0	598.7
42.47	845.0	598.6
42.48	853.0	598.6
42.49	852.0	598.6
42.5	823.0	598.5
42.51	839.0	598.5
42.52	853.0	598.4
42.53	911.0	598.4
42.54	890.0	598.4
42.55	900.0	598.3
42.56	854.0	598.3
42.57	853.0	598.3
42.58	878.0	598.2
42.59	921.0	598.2
42.6	930.0	598.1
42.61	911.0	598.1
42.62	935.0	598.1
42.63	946.0	598.0
42.64	937.0	598.0
42.65	944.0	598.0
42.66	944.0	597.9
42.67	942.0	597.9
42.68	969.0	597.9
42.69	965.0	597.8
42.7	956.0	597.8
42.71	935.0	597.8
42.72	949.0	597.7
42.73	1022.0	597.7
42.74	987.0	597.7
42.75	1023.0	597.6
42.76	1041.0	597.6
42.77	1056.0	597.6
42.78	1034.0	597.5
42.79	1024.0	597.5
42.8	1008.0	597.5
42.81	1041.0	597.5
42.82	1095.0	597.4
42.83	1107.0	597.4
42.84	1076.0	597.4
42.85	1096.0	597.3
42.86	1101.0	597.3
42.87	1090.0	597.3
42.88	1112.0	597.2
42.89	1141.0	597.2
42.9	1156.0	597.2
42.91	1161.0	597.2
42.92	1190.0	597.1
42.93	1223.0	597.1
42.94	1220.0	597.1
42.95	1217.0	597.0
42.96	1214.0	597.0
42.97	1263.0	597.0
42.98	1232.0	597.0
42.99	1325.0	596.9
43.0	1326.0	596.9
43.01	1290.0	596.9
43.02	1300.0	596.9
43.03	1330.0	596.8
43.04	1331.0	596.8
43.05	1373.0	596.8
43.06	1409.0	596.8
43.07	1436.0	596.7
43.08	1447.0	596.7
43.09	1471.0	596.7
43.1	1444.0	596.7
43.11	1489.0	596.6
43.12	1514.0	596.6
43.13	1558.0	596.6
43.14	1561.0	596.6
43.15	1605.0	596.5
43.16	1583.0	596.5
43.17	1672.0	596.5
43.18	1701.0	596.5
43.19	1759.0	596.4
43.2	1686.0	596.4
43.21	1728.0	596.4
43.22	1820.0	596.4
43.23	1793.0	596.4
43.24	1779.0	596.3
43.25	1870.0	596.3
43.26	1923.0	596.3
43.27	1977.0	596.3
43.28	1975.0	596.3
43.29	2026.0	596.2
43.3	2050.0	596.2
43.31	2129.0	596.2
43.32	2106.0	596.2
43.33	2113.0	596.1
43.34	2195.0	596.1
43.35	2200.0	596.1
43.36	2274.0	596.1
43.37	2319.0	596.1
43.38	2406.0	596.0
43.39	2476.0	596.0
43.4	2520.0	596.0
43.41	2474.0	596.0
43.42	2507.0	596.0
43.43	2616.0	595.9
43.44	2719.0	595.9
43.45	2798.0	595.9
43.46	2806.0	595.9
43.47	2875.0	595.9
43.48	2901.0	595.9
43.49	2858.0	595.8
43.5	2952.0	595.8
43.51	3027.0	595.8
43.52	3122.0	595.8
43.53	3160.0	595.8
43.54	3244.0	595.7
43.55	3313.0	595.7
43.56	3357.0	595.7
43.57	3480.0	595.7
43.58	3478.0	595.7
43.59	3442.0	595.7
43.6	3559.0	595.6
43.61	3554.0	595.6
43.62	3586.0	595.6
43.63	3655.0	595.6
43.64	3546.0	595.6
43.65	3595.0	595.6
43.66	3627.0	595.5
43.67	3710.0	595.5
43.68	3694.0	595.5
43.69	3627.0	595.5
43.7	3596.0	595.5
43.71	3574.0	595.5
43.72	3574.0	595.4
43.73	3541.0	595.4
43.74	3501.0	595.4
43.75	3482.0	595.4
43.76	3470.0	595.4
43.77	3395.0	595.4
43.78	3326.0	595.3
43.79	3332.0	595.3
43.8	3269.0	595.3
43.81	3179.0	595.3
43.82	3110.0	595.3
43.83	2998.0	595.3
43.84	2966.0	595.2
43.85	2972.0	595.2
43.86	2902.0	595.2
43.87	2815.0	595.2
43.88	2791.0	595.2
43.89	2750.0	595.2
43.9	2664.0	595.2
43.91	2594.0	595.1
43.92	2558.0	595.1
43.93	2511.0	595.1
43.94	2374.0	595.1
43.95	2332.0	595.1
43.96	2315.0	595.1
43.97	2238.0	595.1
43.98	2270.0	595.0
43.99	2224.0	595.0
44.0	2193.0	595.0
44.01	2131.0	595.0
44.02	2079.0	595.0
44.03	2022.0	595.0
44.04	1985.0	594.9
44.05	1987.0	594.9
44.06	1891.0	594.9
44.07	1856.0	594.9
44.08	1832.0	594.9
44.09	1814.0	594.9
44.1	1793.0	594.9
44.11	1805.0	594.8
44.12	1799.0	594.8
44.13	1710.0	594.8
44.14	1647.0	594.8
44.15	1661.0	594.8
44.16	1637.0	594.8
44.17	1576.0	594.8
44.18	1546.0	594.7
44.19	1558.0	594.7
44.2	1530.0	594.7
44.21	1461.0	594.7
44.22	1425.0	594.7
44.23	1451.0	594.7
44.24	1427.0	594.7
44.25	1389.0	594.6
44.26	1445.0	594.6
44.27	1425.0	594.6
44.28	1390.0	594.6
44.29	1357.0	594.6
44.3	1309.0	594.6
44.31	1299.0	594.6
44.32	1282.0	594.5
44.33	1247.0	594.5
44.34	1215.0	594.5
44.35	1198.0	594.5
44.36	1186.0	594.5
44.37	1212.0	594.5
44.38	1234.0	594.4
44.39	1170.0	594.4
44.4	1191.0	594.4
44.41	1163.0	594.4
44.42	1109.0	594.4
44.43	1113.0	594.4
44.44	1128.0	594.4
44.45	1125.0	594.3
44.46	1080.0	594.3
44.47	1072.0	594.3
44.48	1045.0	594.3
44.49	1040.0	594.3
44.5	1030.0	594.3
44.51	1026.0	594.3
44.52	1030.0	594.2
44.53	1036.0	594.2
44.54	993.0	594.2
44.55	993.0	594.2
44.56	986.0	594.2
44.57	977.0	594.2
44.58	948.0	594.1
44.59	961.0	594.1
44.6	966.0	594.1
44.61	949.0	594.1
44.62	959.0	594.1
44.63	926.0	594.1
44.64	918.0	594.0
44.65	905.0	594.0
44.66	919.0	594.0
44.67	935.0	594.0
44.68	899.0	594.0
44.69	872.0	594.0
44.7	902.0	593.9
44.71	910.0	593.9
44.72	884.0	593.9
44.73	875.0	593.9
44.74	853.0	593.9
44.75	829.0	593.9
44.76	811.0	593.8
44.77	795.0	593.8
44.78	834.0	593.8
44.79	827.0	593.8
44.8	817.0	593.8
44.81	804.0	593.7
44.82	820.0	593.7
44.83	806.0	593.7
44.84	830.0	593.7
44.85	806.0	593.7
44.86	776.0	593.6
44.87	795.0	593.6
44.88	810.0	593.6
44.89	799.0	593.6
44.9	768.0	593.6
44.91	757.0	593.6
44.92	780.0	593.5
44.93	810.0	593.5
44.94	801.0	593.5
44.95	776.0	593.5
44.96	759.0	593.5
44.97	755.0	593.4
44.98	725.0	593.4
44.99	718.0	593.4
45.0	738.0	593.4
45.01	746.0	593.3
45.02	739.0	593.3
45.03	763.0	593.3
45.04	756.0	593.3
45.05	773.0	593.3
45.06	748.0	593.2
45.07	732.0	593.2
45.08	725.0	593.2
45.09	721.0	593.2
45.1	721.0	593.2
45.11	718.0	593.1
45.12	686.0	593.1
45.13	700.0	593.1
45.14	705.0	593.1
45.15	720.0	593.0
45.16	732.0	593.0
45.17	755.0	593.0
45.18	720.0	593.0
45.19	695.0	592.9
45.2	679.0	592.9
45.21	664.0	592.9
45.22	668.0	592.9
45.23	683.0	592.8
45.24	698.0	592.8
45.25	704.0	592.8
45.26	708.0	592.8
45.27	665.0	592.7
45.28	669.0	592.7
45.29	678.0	592.7
45.3	673.0	592.7
45.31	689.0	592.6
45.32	677.0	592.6
45.33	685.0	592.6
45.34	669.0	592.6
45.35	661.0	592.5
45.36	665.0	592.5
45.37	663.0	592.5
45.38	642.0	592.5
45.39	640.0	592.4
45.4	689.0	592.4
45.41	691.0	592.4
45.42	662.0	592.3
45.43	649.0	592.3
45.44	671.0	592.3
45.45	690.0	592.3
45.46	689.0	592.2
45.47	664.0	592.2
45.48	618.0	592.2
45.49	608.0	592.1
45.5	656.0	592.1
45.51	652.0	592.1
45.52	656.0	592.0
45.53	662.0	592.0
45.54	654.0	592.0
45.55	639.0	591.9
45.56	631.0	591.9
45.57	631.0	591.9
45.58	644.0	591.8
45.59	642.0	591.8
45.6	635.0	591.8
45.61	647.0	591.8
45.62	660.0	591.7
45.63	668.0	591.7
45.64	674.0	591.6
45.65	654.0	591.6
45.66	639.0	591.6
45.67	635.0	591.5
45.68	655.0	591.5
45.69	631.0	591.5
45.7	638.0	591.4
45.71	652.0	591.4
45.72	646.0	591.4
45.73	629.0	591.3
45.74	628.0	591.3
45.75	639.0	591.3
45.76	635.0	591.2
45.77	626.0	591.2
45.78	607.0	591.1
45.79	607.0	591.1
45.8	602.0	591.1
45.81	603.0	591.0
45.82	642.0	591.0
45.83	643.0	591.0
45.84	629.0	590.9
45.85	636.0	590.9
45.86	605.0	590.8
45.87	593.0	590.8
45.88	610.0	590.8
45.89	615.0	590.7
45.9	616.0	590.7
45.91	623.0	590.6
45.92	634.0	590.6
45.93	596.0	590.5
45.94	613.0	590.5
45.95	622.0	590.5
45.96	596.0	590.4
45.97	605.0	590.4
45.98	621.0	590.3
45.99	606.0	590.3
46.0	620.0	590.2
46.01	608.0	590.2
46.02	596.0	590.1
46.03	594.0	590.1
46.04	600.0	590.1
46.05	599.0	590.0
46.06	609.0	590.0
46.07	604.0	589.9
46.08	608.0	589.9
46.09	616.0	589.8
46.1	597.0	589.8
46.11	576.0	589.7
46.12	599.0	589.7
46.13	616.0	589.6
46.14	620.0	589.6
46.15	604.0	589.5
46.16	610.0	589.5
46.17	615.0	589.4
46.18	621.0	589.4
46.19	617.0	589.3
46.2	613.0	589.3
46.21	618.0	589.2
46.22	637.0	589.2
46.23	605.0	589.1
46.24	578.0	589.1
46.25	588.0	589.0
46.26	579.0	589.0
46.27	583.0	588.9
46.28	602.0	588.9
46.29	613.0	588.8
46.3	593.0	588.7
46.31	597.0	588.7
46.32	601.0	588.6
46.33	602.0	588.6
46.34	603.0	588.5
46.35	601.0	588.5
46.36	609.0	588.4
46.37	612.0	588.4
46.38	603.0	588.3
46.39	590.0	588.2
46.4	602.0	588.2
46.41	614.0	588.1
46.42	615.0	588.1
46.43	617.0	588.0
46.44	609.0	587.9
46.45	600.0	587.9
46.46	578.0	587.8
46.47	577.0	587.8
46.48	629.0	587.7
46.49	634.0	587.6
46.5	597.0	587.6
46.51	595.0	587.5
46.52	597.0	587.4
46.53	608.0	587.4
46.54	633.0	587.3
46.55	616.0	587.2
46.56	595.0	587.2
46.57	607.0	587.1
46.58	599.0	587.0
46.59	615.0	587.0
46.6	617.0	586.9
46.61	599.0	586.8
46.62	580.0	586.8
46.63	583.0	586.7
46.64	600.0	586.6
46.65	604.0	586.6
46.66	592.0	586.5
46.67	601.0	586.4
46.68	621.0	586.4
46.69	606.0	586.3
46.7	589.0	586.2
46.71	589.0	586.1
46.72	593.0	586.1
46.73	603.0	586.0
46.74	600.0	585.9
46.75	596.0	585.9
46.76	609.0	585.8
46.77	604.0	585.7
46.78	602.0	585.6
46.79	593.0	585.6
46.8	600.0	585.5
46.81	593.0	585.4
46.82	585.0	585.3
46.83	575.0	585.2
46.84	579.0	585.2
46.85	596.0	585.1
46.86	620.0	585.0
46.87	599.0	584.9
46.88	589.0	584.9
46.89	619.0	584.8
46.9	624.0	584.7
46.91	600.0	584.6
46.92	578.0	584.5
46.93	597.0	584.4
46.94	607.0	584.4
46.95	604.0	584.3
46.96	601.0	584.2
46.97	593.0	584.1
46.98	584.0	584.0
46.99	578.0	583.9
47.0	574.0	583.9
47.01	607.0	583.8
47.02	616.0	583.7
47.03	607.0	583.6
47.04	605.0	583.5
47.05	601.0	583.4
47.06	597.0	583.3
47.07	615.0	583.2
47.08	626.0	583.2
47.09	620.0	583.1
47.1	608.0	583.0
47.11	593.0	582.9
47.12	590.0	582.8
47.13	586.0	582.7
47.14	582.0	582.6
47.15	597.0	582.5
47.16	609.0	582.4
47.17	618.0	582.3
47.18	618.0	582.2
47.19	600.0	582.1
47.2	596.0	582.0
47.21	601.0	581.9
47.22	603.0	581.8
47.23	597.0	581.7
47.24	609.0	581.6
47.25	616.0	581.5
47.26	596.0	581.4
47.27	594.0	581.3
47.28	596.0	581.2
47.29	580.0	581.1
47.3	577.0	581.0
47.31	615.0	580.9
47.32	618.0	580.8
47.33	590.0	580.7
47.34	616.0	580.6
47.35	638.0	580.5
47.36	614.0	580.4
47.37	594.0	580.3
47.38	606.0	580.2
47.39	612.0	580.1
47.4	589.0	580.0
47.41	563.0	579.9
47.42	578.0	579.8
47.43	592.0	579.7
47.44	602.0	579.6
47.45	617.0	579.5
47.46	625.0	579.3
47.47	619.0	579.2
47.48	614.0	579.1
47.49	612.0	579.0
47.5	621.0	578.9
47.51	623.0	578.8
47.52	638.0	578.7
47.53	648.0	578.6
47.54	650.0	578.4
47.55	638.0	578.3
47.56	623.0	578.2
47.57	618.0	578.1
47.58	639.0	578.0
47.59	657.0	577.9
47.6	663.0	577.7
47.61	676.0	577.6
47.62	673.0	577.5
47.63	662.0	577.4
47.64	673.0	577.3
47.65	656.0	577.1
47.66	663.0	577.0
47.67	659.0	576.9
47.68	647.0	576.8
47.69	637.0	576.7
47.7	659.0	576.5
47.71	672.0	576.4
47.72	656.0	576.3
47.73	661.0	576.2
47.74	668.0	576.0
47.75	654.0	575.9
47.76	650.0	575.8
47.77	644.0	575.7
47.78	642.0	575.5
47.79	660.0	575.4
47.8	680.0	575.3
47.81	701.0	575.1
47.82	680.0	575.0
47.83	670.0	574.9
47.84	679.0	574.8
47.85	691.0	574.6
47.86	718.0	574.5
47.87	719.0	574.4
47.88	721.0	574.2
47.89	730.0	574.1
47.9	729.0	574.0
47.91	733.0	573.8
47.92	733.0	573.7
47.93	745.0	573.6
47.94	734.0	573.4
47.95	697.0	573.3
47.96	708.0	573.2
47.97	731.0	573.0
47.98	724.0	572.9
47.99	715.0	572.8
48.0	720.0	572.6
48.01	727.0	572.5
48.02	748.0	572.3
48.03	750.0	572.2
48.04	748.0	572.1
48.05	750.0	571.9
48.06	749.0	571.8
48.07	758.0	571.7
48.08	758.0	571.5
48.09	744.0	571.4
48.1	717.0	571.2
48.11	702.0	571.1
48.12	716.0	571.0
48.13	744.0	570.8
48.14	729.0	570.7
48.15	696.0	570.5
48.16	681.0	570.4
48.17	684.0	570.2
48.18	693.0	570.1
48.19	704.0	570.0
48.2	706.0	569.8
48.21	692.0	569.7
48.22	685.0	569.5
48.23	663.0	569.4
48.24	655.0	569.2
48.25	670.0	569.1
48.26	676.0	568.9
48.27	647.0	568.8
48.28	642.0	568.6
48.29	650.0	568.5
48.3	641.0	568.4
48.31	619.0	568.2
48.32	623.0	568.1
48.33	645.0	567.9
48.34	631.0	567.8
48.35	619.0	567.6
48.36	626.0	567.5
48.37	628.0	567.3
48.38	621.0	567.2
48.39	611.0	567.0
48.4	608.0	566.9
48.41	604.0	566.7
48.42	605.0	566.6
48.43	615.0	566.4
48.44	608.0	566.3
48.45	617.0	566.1
48.46	623.0	566.0
48.47	611.0	565.8
48.48	602.0	565.7
48.49	601.0	565.5
48.5	598.0	565.3
48.51	602.0	565.2
48.52	612.0	565.0
48.53	619.0	564.9
48.54	618.0	564.7
48.55	613.0	564.6
48.56	615.0	564.4
48.57	619.0	564.3
48.58	602.0	564.1
48.59	595.0	564.0
48.6	609.0	563.8
48.61	617.0	563.6
48.62	606.0	563.5
48.63	580.0	563.3
48.64	564.0	563.2
48.65	575.0	563.0
48.66	569.0	562.9
48.67	555.0	562.7
48.68	576.0	562.6
48.69	580.0	562.4
48.7	565.0	562.2
48.71	564.0	562.1
48.72	579.0	561.9
48.73	580.0	561.8
48.74	581.0	561.6
48.75	591.0	561.4
48.76	602.0	561.3
48.77	594.0	561.1
48.78	595.0	561.0
48.79	595.0	560.8
48.8	573.0	560.7
48.81	570.0	560.5
48.82	578.0	560.3
48.83	569.0	560.2
48.84	566.0	560.0
48.85	563.0	559.9
48.86	572.0	559.7
48.87	591.0	559.5
48.88	600.0	559.4
48.89	613.0	559.2
48.9	592.0	559.0
48.91	566.0	558.9
48.92	568.0	558.7
48.93	562.0	558.6
48.94	556.0	558.4
48.95	563.0	558.2
48.96	572.0	558.1
48.97	568.0	557.9
48.98	542.0	557.8
48.99	528.0	557.6
49.0	561.0	557.4
49.01	582.0	557.3
49.02	573.0	557.1
49.03	575.0	556.9
49.04	581.0	556.8
49.05	575.0	556.6
49.06	563.0	556.5
49.07	563.0	556.3
49.08	563.0	556.1
49.09	574.0	556.0
49.1	562.0	555.8
49.11	560.0	555.6
49.12	569.0	555.5
49.13	566.0	555.3
49.14	577.0	555.1
49.15	581.0	555.0
49.16	566.0	554.8
49.17	578.0	554.7
49.18	586.0	554.5
49.19	574.0	554.3
49.2	587.0	554.2
49.21	580.0	554.0
49.22	570.0	553.8
49.23	577.0	553.7
49.24	571.0	553.5
49.25	556.0	553.3
49.26	558.0	553.2
49.27	581.0	553.0
49.28	592.0	552.9
49.29	602.0	552.7
49.3	572.0	552.5
49.31	557.0	552.4
49.32	572.0	552.2
49.33	564.0	552.0
49.34	559.0	551.9
49.35	554.0	551.7
49.36	553.0	551.5
49.37	544.0	551.4
49.38	550.0	551.2
49.39	564.0	551.0
49.4	571.0	550.9
49.41	569.0	550.7
49.42	552.0	550.6
49.43	557.0	550.4
49.44	567.0	550.2
49.45	567.0	550.1
49.46	581.0	549.9
49.47	589.0	549.7
49.48	578.0	549.6
49.49	578.0	549.4
49.5	573.0	549.2
49.51	559.0	549.1
49.52	577.0	548.9
49.53	577.0	548.7
49.54	558.0	548.6
49.55	567.0	548.4
49.56	585.0	548.3
49.57	565.0	548.1
49.58	547.0	547.9
49.59	543.0	547.8
49.6	534.0	547.6
49.61	555.0	547.4
49.62	580.0	547.3
49.63	570.0	547.1
49.64	567.0	546.9
49.65	581.0	546.8
49.66	578.0	546.6
49.67	572.0	546.5
49.68	568.0	546.3
49.69	567.0	546.1
49.7	565.0	546.0
49.71	562.0	545.8
49.72	555.0	545.6
49.73	536.0	545.5
49.74	559.0	545.3
49.75	572.0	545.2
49.76	559.0	545.0
49.77	554.0	544.8
49.78	542.0	544.7
49.79	550.0	544.5
49.8	554.0	544.3
49.81	555.0	544.2
49.82	571.0	544.0
49.83	573.0	543.9
49.84	558.0	543.7
49.85	553.0	543.5
49.86	552.0	543.4
49.87	556.0	543.2
49.88	562.0	543.1
49.89	566.0	542.9
49.9	556.0	542.7
49.91	539.0	542.6
49.92	540.0	542.4
49.93	547.0	542.2
49.94	590.0	542.1
49.95	595.0	541.9
49.96	559.0	541.8
49.97	560.0	541.6
49.98	549.0	541.5
49.99	528.0	541.3
50.0	537.0	541.1
50.01	545.0	541.0
50.02	539.0	540.8
50.03	545.0	540.7
50.04	561.0	540.5
50.05	577.0	540.3
50.06	565.0	540.2
50.07	532.0	540.0
50.08	525.0	539.9
50.09	544.0	539.7
50.1	566.0	539.6
50.11	558.0	539.4
50.12	549.0	539.2
50.13	548.0	539.1
50.14	531.0	538.9
50.15	536.0	538.8
50.16	539.0	538.6
50.17	535.0	538.5
50.18	551.0	538.3
50.19	549.0	538.2
50.2	541.0	538.0
50.21	548.0	537.8
50.22	554.0	537.7
50.23	548.0	537.5
50.24	551.0	537.4
50.25	567.0	537.2
50.26	549.0	537.1
50.27	526.0	536.9
50.28	528.0	536.8
50.29	536.0	536.6
50.3	551.0	536.5
50.31	559.0	536.3
50.32	547.0	536.2
50.33	533.0	536.0
50.34	540.0	535.9
50.35	555.0	535.7
50.36	549.0	535.6
50.37	536.0	535.4
50.38	543.0	535.3
50.39	567.0	535.1
50.4	566.0	535.0
50.41	534.0	534.8
50.42	527.0	534.7
50.43	543.0	534.5
50.44	553.0	534.4
50.45	565.0	534.2
50.46	566.0	534.1
50.47	570.0	533.9
50.48	575.0	533.8
50.49	559.0	533.6
50.5	542.0	533.5
50.51	543.0	533.3
50.52	555.0	533.2
50.53	566.0	533.0
50.54	551.0	532.9
50.55	529.0	532.8
50.56	540.0	532.6
50.57	559.0	532.5
50.58	571.0	532.3
50.59	561.0	532.2
50.6	526.0	532.0
50.61	515.0	531.9
50.62	534.0	531.8
50.63	545.0	531.6
50.64	523.0	531.5
50.65	511.0	531.3
50.66	531.0	531.2
50.67	555.0	531.0
50.68	547.0	530.9
50.69	529.0	530.8
50.7	533.0	530.6
50.71	538.0	530.5
50.72	554.0	530.4
50.73	572.0	530.2
50.74	553.0	530.1
50.75	533.0	529.9
50.76	534.0	529.8
50.77	547.0	529.7
50.78	548.0	529.5
50.79	526.0	529.4
50.8	521.0	529.3
50.81	532.0	529.1
50.82	540.0	529.0
50.83	534.0	528.9
50.84	547.0	528.7
50.85	560.0	528.6
50.86	551.0	528.5
50.87	552.0	528.3
50.88	554.0	528.2
50.89	535.0	528.1
50.9	528.0	527.9
50.91	520.0	527.8
50.92	524.0	527.7
50.93	553.0	527.5
50.94	552.0	527.4
50.95	550.0	527.3
50.96	562.0	527.2
50.97	560.0	527.0
50.98	540.0	526.9
50.99	539.0	526.8
51.0	562.0	526.6
51.01	554.0	526.5
51.02	540.0	526.4
51.03	543.0	526.3
51.04	549.0	526.1
51.05	562.0	526.0
51.06	563.0	525.9
51.07	553.0	525.8
51.08	537.0	525.7
51.09	527.0	525.5
51.1	534.0	525.4
51.11	539.0	525.3
51.12	528.0	525.2
51.13	533.0	525.0
51.14	532.0	524.9
51.15	528.0	524.8
51.16	532.0	524.7
51.17	525.0	524.6
51.18	528.0	524.5
51.19	540.0	524.3
51.2	539.0	524.2
51.21	535.0	524.1
51.22	529.0	524.0
51.23	538.0	523.9
51.24	544.0	523.8
51.25	538.0	523.7
51.26	531.0	523.5
51.27	524.0	523.4
51.28	544.0	523.3
51.29	559.0	523.2
51.3	572.0	523.1
51.31	562.0	523.0
51.32	549.0	522.9
51.33	560.0	522.8
51.34	559.0	522.7
51.35	551.0	522.5
51.36	537.0	522.4
51.37	531.0	522.3
51.38	546.0	522.2
51.39	552.0	522.1
51.4	549.0	522.0
51.41	539.0	521.9
51.42	544.0	521.8
51.43	541.0	521.7
51.44	542.0	521.6
51.45	553.0	521.5
51.46	541.0	521.4
51.47	536.0	521.3
51.48	529.0	521.2
51.49	520.0	521.1
51.5	536.0	521.0
51.51	554.0	520.9
51.52	559.0	520.8
51.53	541.0	520.7
51.54	508.0	520.6
51.55	512.0	520.5
51.56	524.0	520.4
51.57	523.0	520.3
51.58	530.0	520.2
51.59	531.0	520.1
51.6	523.0	520.0
51.61	521.0	519.9
51.62	539.0	519.9
51.63	562.0	519.8
51.64	547.0	519.7
51.65	526.0	519.6
51.66	530.0	519.5
51.67	565.0	519.4
51.68	564.0	519.3
51.69	542.0	519.2
51.7	556.0	519.1
51.71	567.0	519.1
51.72	544.0	519.0
51.73	521.0	518.9
51.74	525.0	518.8
51.75	539.0	518.7
51.76	547.0	518.6
51.77	537.0	518.6
51.78	518.0	518.5
51.79	507.0	518.4
51.8	523.0	518.3
51.81	536.0	518.2
51.82	529.0	518.2
51.83	529.0	518.1
51.84	533.0	518.0
51.85	536.0	517.9
51.86	543.0	517.9
51.87	560.0	517.8
51.88	568.0	517.7
51.89	545.0	517.6
51.9	541.0	517.6
51.91	560.0	517.5
51.92	556.0	517.4
51.93	550.0	517.4
51.94	550.0	517.3
51.95	560.0	517.2
51.96	561.0	517.1
51.97	563.0	517.1
51.98	567.0	517.0
51.99	565.0	516.9
52.0	567.0	516.9
52.01	551.0	516.8
52.02	527.0	516.7
52.03	516.0	516.7
52.04	523.0	516.6
52.05	531.0	516.6
52.06	527.0	516.5
52.07	531.0	516.4
52.08	539.0	516.4
52.09	542.0	516.3
52.1	543.0	516.3
52.11	545.0	516.2
52.12	541.0	516.1
52.13	546.0	516.1
52.14	552.0	516.0
52.15	526.0	516.0
52.16	512.0	515.9
52.17	535.0	515.9
52.18	551.0	515.8
52.19	547.0	515.8
52.2	545.0	515.7
52.21	549.0	515.7
52.22	557.0	515.6
52.23	553.0	515.6
52.24	538.0	515.5
52.25	527.0	515.5
52.26	526.0	515.4
52.27	532.0	515.4
52.28	548.0	515.3
52.29	558.0	515.3
52.3	561.0	515.2
52.31	565.0	515.2
52.32	541.0	515.1
52.33	521.0	515.1
52.34	538.0	515.0
52.35	555.0	515.0
52.36	540.0	515.0
52.37	540.0	514.9
52.38	538.0	514.9
52.39	538.0	514.8
52.4	537.0	514.8
52.41	567.0	514.8
52.42	583.0	514.7
52.43	559.0	514.7
52.44	531.0	514.6
52.45	540.0	514.6
52.46	552.0	514.6
52.47	554.0	514.5
52.48	563.0	514.5
52.49	542.0	514.5
52.5	528.0	514.4
52.51	536.0	514.4
52.52	543.0	514.4
52.53	546.0	514.3
52.54	546.0	514.3
52.55	549.0	514.3
52.56	552.0	514.2
52.57	547.0	514.2
52.58	542.0	514.2
52.59	547.0	514.2
52.6	540.0	514.1
52.61	540.0	514.1
52.62	550.0	514.1
52.63	551.0	514.0
52.64	547.0	514.0
52.65	545.0	514.0
52.66	541.0	514.0
52.67	557.0	513.9
52.68	568.0	513.9
52.69	558.0	513.9
52.7	551.0	513.9
52.71	558.0	513.9
52.72	565.0	513.8
52.73	563.0	513.8
52.74	570.0	513.8
52.75	564.0	513.8
52.76	555.0	513.8
52.77	560.0	513.7
52.78	567.0	513.7
52.79	549.0	513.7
52.8	514.0	513.7
52.81	512.0	513.7
52.82	526.0	513.7
52.83	534.0	513.7
52.84	553.0	513.6
52.85	557.0	513.6
52.86	542.0	513.6
52.87	537.0	513.6
52.88	530.0	513.6
52.89	536.0	513.6
52.9	546.0	513.6
52.91	540.0	513.6
52.92	533.0	513.5
52.93	537.0	513.5
52.94	531.0	513.5
52.95	528.0	513.5
52.96	537.0	513.5
52.97	558.0	513.5
52.98	560.0	513.5
52.99	556.0	513.5
53.0	552.0	513.5
53.01	538.0	513.5
53.02	537.0	513.5
53.03	551.0	513.5
53.04	542.0	513.5
53.05	524.0	513.5
53.06	532.0	513.5
53.07	552.0	513.5
53.08	558.0	513.5
53.09	564.0	513.5
53.1	568.0	513.5
53.11	563.0	513.5
53.12	563.0	513.5
53.13	558.0	513.5
53.14	540.0	513.5
53.15	538.0	513.5
53.16	540.0	513.5
53.17	540.0	513.5
53.18	533.0	513.5
53.19	537.0	513.5
53.2	569.0	513.5
53.21	571.0	513.5
53.22	547.0	513.5
53.23	535.0	513.5
53.24	539.0	513.5
53.25	559.0	513.5
53.26	567.0	513.6
53.27	559.0	513.6
53.28	558.0	513.6
53.29	549.0	513.6
53.3	532.0	513.6
53.31	531.0	513.6
53.32	546.0	513.6
53.33	554.0	513.6
53.34	576.0	513.6
53.35	576.0	513.7
53.36	573.0	513.7
53.37	566.0	513.7
53.38	569.0	513.7
53.39	577.0	513.7
53.4	574.0	513.7
53.41	569.0	513.7
53.42	585.0	513.8
53.43	578.0	513.8
53.44	552.0	513.8
53.45	553.0	513.8
53.46	559.0	513.8
53.47	559.0	513.8
53.48	556.0	513.9
53.49	550.0	513.9
53.5	539.0	513.9
53.51	548.0	513.9
53.52	563.0	513.9
53.53	550.0	514.0
53.54	548.0	514.0
53.55	571.0	514.0
53.56	574.0	514.0
53.57	566.0	514.1
53.58	581.0	514.1
53.59	593.0	514.1
53.6	589.0	514.1
53.61	570.0	514.2
53.62	574.0	514.2
53.63	599.0	514.2
53.64	597.0	514.2
53.65	589.0	514.3
53.66	593.0	514.3
53.67	592.0	514.3
53.68	593.0	514.4
53.69	577.0	514.4
53.7	576.0	514.4
53.71	578.0	514.4
53.72	586.0	514.5
53.73	611.0	514.5
53.74	611.0	514.5
53.75	587.0	514.6
53.76	582.0	514.6
53.77	581.0	514.6
53.78	572.0	514.7
53.79	596.0	514.7
53.8	612.0	514.7
53.81	597.0	514.8
53.82	583.0	514.8
53.83	587.0	514.8
53.84	589.0	514.9
53.85	600.0	514.9
53.86	598.0	514.9
53.87	580.0	515.0
53.88	590.0	515.0
53.89	601.0	515.1
53.9	594.0	515.1
53.91	603.0	515.1
53.92	600.0	515.2
53.93	582.0	515.2
53.94	594.0	515.2
53.95	624.0	515.3
53.96	622.0	515.3
53.97	613.0	515.4
53.98	612.0	515.4
53.99	614.0	515.5
54.0	616.0	515.5
54.01	601.0	515.5
54.02	584.0	515.6
54.03	600.0	515.6
54.04	612.0	515.7
54.05	638.0	515.7
54.06	641.0	515.8
54.07	629.0	515.8
54.08	625.0	515.8
54.09	620.0	515.9
54.1	599.0	515.9
54.11	598.0	516.0
54.12	626.0	516.0
54.13	631.0	516.1
54.14	585.0	516.1
54.15	557.0	516.2
54.16	572.0	516.2
54.17	580.0	516.3
54.18	579.0	516.3
54.19	584.0	516.4
54.2	606.0	516.4
54.21	612.0	516.5
54.22	609.0	516.5
54.23	608.0	516.6
54.24	599.0	516.6
54.25	592.0	516.7
54.26	583.0	516.7
54.27	591.0	516.8
54.28	594.0	516.8
54.29	585.0	516.9
54.3	579.0	516.9
54.31	585.0	517.0
54.32	596.0	517.0
54.33	611.0	517.1
54.34	609.0	517.2
54.35	585.0	517.2
54.36	578.0	517.3
54.37	583.0	517.3
54.38	576.0	517.4
54.39	555.0	517.4
54.4	556.0	517.5
54.41	591.0	517.6
54.42	596.0	517.6
54.43	577.0	517.7
54.44	581.0	517.7
54.45	588.0	517.8
54.46	577.0	517.8
54.47	570.0	517.9
54.48	590.0	518.0
54.49	611.0	518.0
54.5	630.0	518.1
54.51	621.0	518.2
54.52	589.0	518.2
54.53	591.0	518.3
54.54	586.0	518.3
54.55	587.0	518.4
54.56	584.0	518.5
54.57	566.0	518.5
54.58	564.0	518.6
54.59	573.0	518.7
54.6	560.0	518.7
54.61	566.0	518.8
54.62	591.0	518.8
54.63	609.0	518.9
54.64	590.0	519.0
54.65	571.0	519.0
54.66	583.0	519.1
54.67	592.0	519.2
54.68	620.0	519.2
54.69	612.0	519.3
54.7	598.0	519.4
54.71	605.0	519.4
54.72	598.0	519.5
54.73	591.0	519.6
54.74	593.0	519.6
54.75	600.0	519.7
54.76	592.0	519.8
54.77	585.0	519.8
54.78	593.0	519.9
54.79	607.0	520.0
54.8	613.0	520.1
54.81	616.0	520.1
54.82	631.0	520.2
54.83	609.0	520.3
54.84	596.0	520.3
54.85	617.0	520.4
54.86	592.0	520.5
54.87	578.0	520.6
54.88	592.0	520.6
54.89	614.0	520.7
54.9	629.0	520.8
54.91	624.0	520.9
54.92	614.0	520.9
54.93	601.0	521.0
54.94	619.0	521.1
54.95	646.0	521.1
54.96	657.0	521.2
54.97	640.0	521.3
54.98	635.0	521.4
54.99	639.0	521.4
55.0	632.0	521.5
55.01	614.0	521.6
55.02	626.0	521.7
55.03	639.0	521.8
55.04	621.0	521.8
55.05	598.0	521.9
55.06	621.0	522.0
55.07	651.0	522.1
55.08	653.0	522.1
55.09	673.0	522.2
55.1	670.0	522.3
55.11	650.0	522.4
55.12	637.0	522.5
55.13	631.0	522.5
55.14	631.0	522.6
55.15	639.0	522.7
55.16	636.0	522.8
55.17	639.0	522.9
55.18	641.0	522.9
55.19	648.0	523.0
55.2	649.0	523.1
55.21	630.0	523.2
55.22	615.0	523.3
55.23	621.0	523.3
55.24	644.0	523.4
55.25	647.0	523.5
55.26	625.0	523.6
55.27	632.0	523.7
55.28	645.0	523.7
55.29	637.0	523.8
55.3	629.0	523.9
55.31	615.0	524.0
55.32	612.0	524.1
55.33	636.0	524.2
55.34	647.0	524.2
55.35	643.0	524.3
55.36	626.0	524.4
55.37	604.0	524.5
55.38	591.0	524.6
55.39	609.0	524.7
55.4	639.0	524.8
55.41	642.0	524.8
55.42	630.0	524.9
55.43	620.0	525.0
55.44	617.0	525.1
55.45	636.0	525.2
55.46	617.0	525.3
55.47	610.0	525.4
55.48	631.0	525.4
55.49	640.0	525.5
55.5	622.0	525.6
55.51	605.0	525.7
55.52	616.0	525.8
55.53	610.0	525.9
55.54	599.0	526.0
55.55	608.0	526.1
55.56	614.0	526.2
55.57	607.0	526.2
55.58	598.0	526.3
55.59	599.0	526.4
55.6	614.0	526.5
55.61	607.0	526.6
55.62	606.0	526.7
55.63	607.0	526.8
55.64	592.0	526.9
55.65	616.0	527.0
55.66	627.0	527.1
55.67	634.0	527.1
55.68	631.0	527.2
55.69	624.0	527.3
55.7	617.0	527.4
55.71	605.0	527.5
55.72	611.0	527.6
55.73	627.0	527.7
55.74	615.0	527.8
55.75	603.0	527.9
55.76	621.0	528.0
55.77	626.0	528.1
55.78	603.0	528.1
55.79	603.0	528.2
55.8	606.0	528.3
55.81	596.0	528.4
55.82	589.0	528.5
55.83	603.0	528.6
55.84	602.0	528.7
55.85	604.0	528.8
55.86	615.0	528.9
55.87	616.0	529.0
55.88	605.0	529.1
55.89	606.0	529.2
55.9	604.0	529.3
55.91	633.0	529.4
55.92	625.0	529.5
55.93	615.0	529.6
55.94	610.0	529.7
55.95	607.0	529.7
55.96	606.0	529.8
55.97	613.0	529.9
55.98	601.0	530.0
55.99	592.0	530.1
56.0	595.0	530.2
56.01	615.0	530.3
56.02	616.0	530.4
56.03	594.0	530.5
56.04	580.0	530.6
56.05	581.0	530.7
56.06	604.0	530.8
56.07	632.0	530.9
56.08	637.0	531.0
56.09	624.0	531.1
56.1	622.0	531.2
56.11	617.0	531.3
56.12	613.0	531.4
56.13	580.0	531.5
56.14	566.0	531.6
56.15	580.0	531.7
56.16	592.0	531.8
56.17	610.0	531.9
56.18	622.0	532.0
56.19	619.0	532.1
56.2	605.0	532.2
56.21	607.0	532.3
56.22	606.0	532.4
56.23	605.0	532.5
56.24	604.0	532.6
56.25	624.0	532.7
56.26	630.0	532.8
56.27	627.0	532.9
56.28	634.0	533.0
56.29	623.0	533.1
56.3	636.0	533.2
56.31	627.0	533.3
56.32	618.0	533.4
56.33	604.0	533.5
56.34	615.0	533.6
56.35	624.0	533.7
56.36	617.0	533.8
56.37	609.0	533.9
56.38	610.0	534.0
56.39	608.0	534.1
56.4	615.0	534.2
56.41	624.0	534.3
56.42	638.0	534.4
56.43	630.0	534.5
56.44	628.0	534.6
56.45	621.0	534.7
56.46	608.0	534.8
56.47	601.0	534.9
56.48	616.0	535.0
56.49	619.0	535.1
56.5	592.0	535.2
56.51	600.0	535.3
56.52	602.0	535.4
56.53	612.0	535.5
56.54	621.0	535.6
56.55	634.0	535.7
56.56	590.0	535.8
56.57	622.0	535.9
56.58	645.0	536.0
56.59	634.0	536.1
56.6	637.0	536.2
56.61	622.0	536.3
56.62	611.0	536.4
56.63	603.0	536.5
56.64	604.0	536.6
56.65	619.0	536.7
56.66	633.0	536.8
56.67	641.0	536.9
56.68	637.0	537.0
56.69	610.0	537.1
56.7	615.0	537.2
56.71	620.0	537.3
56.72	631.0	537.4
56.73	637.0	537.5
56.74	631.0	537.6
56.75	628.0	537.7
56.76	642.0	537.8
56.77	624.0	537.9
56.78	606.0	538.0
56.79	607.0	538.1
56.8	632.0	538.2
56.81	650.0	538.3
56.82	656.0	538.4
56.83	639.0	538.5
56.84	650.0	538.6
56.85	659.0	538.7
56.86	661.0	538.8
56.87	638.0	538.9
56.88	583.0	539.0
56.89	600.0	539.1
56.9	651.0	539.2
56.91	630.0	539.3
56.92	624.0	539.4
56.93	627.0	539.5
56.94	633.0	539.6
56.95	649.0	539.7
56.96	661.0	539.8
56.97	664.0	539.9
56.98	658.0	540.0
56.99	669.0	540.1
57.0	659.0	540.2
57.01	651.0	540.3
57.02	647.0	540.5
57.03	642.0	540.6
57.04	656.0	540.7
57.05	661.0	540.8
57.06	661.0	540.9
57.07	652.0	541.0
57.08	653.0	541.1
57.09	655.0	541.2
57.1	659.0	541.3
57.11	655.0	541.4
57.12	678.0	541.5
57.13	694.0	541.6
57.14	680.0	541.7
57.15	666.0	541.8
57.16	658.0	541.9
57.17	668.0	542.0
57.18	654.0	542.1
57.19	668.0	542.2
57.2	670.0	542.3
57.21	656.0	542.4
57.22	660.0	542.5
57.23	678.0	542.6
57.24	688.0	542.7
57.25	689.0	542.8
57.26	662.0	542.9
57.27	651.0	543.0
57.28	680.0	543.1
57.29	699.0	543.2
57.3	692.0	543.3
57.31	672.0	543.4
57.32	664.0	543.5
57.33	668.0	543.6
57.34	657.0	543.7
57.35	681.0	543.8
57.36	717.0	543.9
57.37	707.0	544.0
57.38	676.0	544.1
57.39	655.0	544.2
57.4	678.0	544.3
57.41	702.0	544.4
57.42	717.0	544.5
57.43	724.0	544.6
57.44	708.0	544.7
57.45	676.0	544.8
57.46	683.0	544.9
57.47	722.0	545.0
57.48	722.0	545.1
57.49	682.0	545.2
57.5	691.0	545.3
57.51	735.0	545.4
57.52	727.0	545.5
57.53	705.0	545.6
57.54	707.0	545.7
57.55	712.0	545.8
57.56	709.0	545.9
57.57	681.0	546.0
57.58	686.0	546.1
57.59	693.0	546.2
57.6	702.0	546.3
57.61	704.0	546.4
57.62	694.0	546.5
57.63	695.0	546.6
57.64	727.0	546.7
57.65	721.0	546.8
57.66	701.0	546.9
57.67	699.0	547.0
57.68	699.0	547.1
57.69	706.0	547.2
57.7	704.0	547.3
57.71	698.0	547.4
57.72	704.0	547.5
57.73	709.0	547.6
57.74	735.0	547.7
57.75	729.0	547.8
57.76	710.0	547.9
57.77	693.0	548.0
57.78	695.0	548.1
57.79	715.0	548.2
57.8	730.0	548.3
57.81	735.0	548.4
57.82	715.0	548.5
57.83	725.0	548.6
57.84	726.0	548.7
57.85	706.0	548.8
57.86	707.0	548.9
57.87	706.0	549.0
57.88	701.0	549.1
57.89	676.0	549.2
57.9	669.0	549.3
57.91	678.0	549.4
57.92	673.0	549.5
57.93	656.0	549.6
57.94	671.0	549.7
57.95	693.0	549.8
57.96	708.0	549.9
57.97	674.0	549.9
57.98	652.0	550.0
57.99	639.0	550.1
58.0	663.0	550.2
58.01	669.0	550.3
58.02	679.0	550.4
58.03	682.0	550.5
58.04	710.0	550.6
58.05	692.0	550.7
58.06	667.0	550.8
58.07	684.0	550.9
58.08	673.0	551.0
58.09	667.0	551.1
58.1	638.0	551.2
58.11	638.0	551.3
58.12	662.0	551.4
58.13	687.0	551.5
58.14	661.0	551.6
58.15	650.0	551.6
58.16	652.0	551.7
58.17	658.0	551.8
58.18	652.0	551.9
58.19	670.0	552.0
58.2	709.0	552.1
58.21	710.0	552.2
58.22	665.0	552.3
58.23	661.0	552.4
58.24	631.0	552.5
58.25	639.0	552.6
58.26	639.0	552.7
58.27	625.0	552.7
58.28	629.0	552.8
58.29	656.0	552.9
58.3	649.0	553.0
58.31	620.0	553.1
58.32	633.0	553.2
58.33	626.0	553.3
58.34	626.0	553.4
58.35	645.0	553.5
58.36	644.0	553.6
58.37	638.0	553.6
58.38	644.0	553.7
58.39	635.0	553.8
58.4	629.0	553.9
58.41	636.0	554.0
58.42	651.0	554.1
58.43	631.0	554.2
58.44	613.0	554.3
58.45	638.0	554.4
58.46	635.0	554.4
58.47	633.0	554.5
58.48	631.0	554.6
58.49	636.0	554.7
58.5	636.0	554.8
58.51	627.0	554.9
58.52	616.0	555.0
58.53	601.0	555.0
58.54	592.0	555.1
58.55	604.0	555.2
58.56	603.0	555.3
58.57	611.0	555.4
58.58	624.0	555.5
58.59	633.0	555.6
58.6	607.0	555.6
58.61	590.0	555.7
58.62	625.0	555.8
58.63	643.0	555.9
58.64	622.0	556.0
58.65	611.0	556.1
58.66	618.0	556.1
58.67	627.0	556.2
58.68	624.0	556.3
58.69	615.0	556.4
58.7	618.0	556.5
58.71	613.0	556.6
58.72	625.0	556.6
58.73	608.0	556.7
58.74	619.0	556.8
58.75	615.0	556.9
58.76	611.0	557.0
58.77	611.0	557.0
58.78	604.0	557.1
58.79	622.0	557.2
58.8	619.0	557.3
58.81	608.0	557.4
58.82	626.0	557.4
58.83	638.0	557.5
58.84	616.0	557.6
58.85	594.0	557.7
58.86	584.0	557.8
58.87	603.0	557.8
58.88	606.0	557.9
58.89	602.0	558.0
58.9	640.0	558.1
58.91	635.0	558.1
58.92	592.0	558.2
58.93	592.0	558.3
58.94	584.0	558.4
58.95	587.0	558.5
58.96	608.0	558.5
58.97	638.0	558.6
58.98	603.0	558.7
58.99	622.0	558.8
59.0	613.0	558.8
59.01	593.0	558.9
59.02	599.0	559.0
59.03	590.0	559.1
59.04	617.0	559.1
59.05	642.0	559.2
59.06	618.0	559.3
59.07	594.0	559.3
59.08	602.0	559.4
59.09	611.0	559.5
59.1	603.0	559.6
59.11	599.0	559.6
59.12	616.0	559.7
59.13	601.0	559.8
59.14	616.0	559.8
59.15	612.0	559.9
59.16	584.0	560.0
59.17	603.0	560.1
59.18	621.0	560.1
59.19	612.0	560.2
59.2	598.0	560.3
59.21	610.0	560.3
59.22	609.0	560.4
59.23	595.0	560.5
59.24	586.0	560.5
59.25	609.0	560.6
59.26	611.0	560.7
59.27	600.0	560.7
59.28	585.0	560.8
59.29	573.0	560.9
59.3	587.0	560.9
59.31	582.0	561.0
59.32	589.0	561.1
59.33	584.0	561.1
59.34	598.0	561.2
59.35	596.0	561.3
59.36	588.0	561.3
59.37	594.0	561.4
59.38	607.0	561.5
59.39	614.0	561.5
59.4	618.0	561.6
59.41	612.0	561.6
59.42	603.0	561.7
59.43	590.0	561.8
59.44	603.0	561.8
59.45	611.0	561.9
59.46	597.0	561.9
59.47	587.0	562.0
59.48	598.0	562.1
59.49	593.0	562.1
59.5	578.0	562.2
59.51	594.0	562.2
59.52	623.0	562.3
59.53	605.0	562.4
59.54	587.0	562.4
59.55	590.0	562.5
59.56	615.0	562.5
59.57	628.0	562.6
59.58	604.0	562.6
59.59	615.0	562.7
59.6	601.0	562.8
59.61	587.0	562.8
59.62	589.0	562.9
59.63	603.0	562.9
59.64	599.0	563.0
59.65	592.0	563.0
59.66	597.0	563.1
59.67	608.0	563.1
59.68	604.0	563.2
59.69	576.0	563.2
59.7	563.0	563.3
59.71	567.0	563.3
59.72	559.0	563.4
59.73	569.0	563.4
59.74	588.0	563.5
59.75	572.0	563.6
59.76	561.0	563.6
59.77	559.0	563.7
59.78	566.0	563.7
59.79	586.0	563.7
59.8	573.0	563.8
59.81	585.0	563.8
59.82	578.0	563.9
59.83	587.0	563.9
59.84	573.0	564.0
59.85	566.0	564.0
59.86	566.0	564.1
59.87	573.0	564.1
59.88	597.0	564.2
59.89	576.0	564.2
59.9	565.0	564.3
59.91	568.0	564.3
59.92	595.0	564.3
59.93	578.0	564.4
59.94	567.0	564.4
59.95	560.0	564.5
59.96	559.0	564.5
59.97	602.0	564.6
59.98	618.0	564.6
59.99	610.0	564.6
60.0	574.0	564.7
60.01	568.0	564.7
60.02	552.0	564.8
60.03	552.0	564.8
60.04	584.0	564.8
60.05	592.0	564.9
60.06	589.0	564.9
60.07	599.0	565.0
60.08	582.0	565.0
60.09	586.0	565.0
60.1	592.0	565.1
60.11	583.0	565.1
60.12	608.0	565.2
60.13	603.0	565.2
60.14	579.0	565.2
60.15	569.0	565.3
60.16	568.0	565.3
60.17	583.0	565.3
60.18	584.0	565.4
60.19	592.0	565.4
60.2	582.0	565.4
60.21	568.0	565.5
60.22	560.0	565.5
60.23	590.0	565.5
60.24	602.0	565.6
60.25	606.0	565.6
60.26	586.0	565.6
60.27	570.0	565.7
60.28	585.0	565.7
60.29	605.0	565.7
60.3	606.0	565.8
60.31	586.0	565.8
60.32	568.0	565.8
60.33	578.0	565.8
60.34	614.0	565.9
60.35	618.0	565.9
60.36	585.0	565.9
60.37	578.0	566.0
60.38	580.0	566.0
60.39	598.0	566.0
60.4	602.0	566.0
60.41	597.0	566.1
60.42	598.0	566.1
60.43	607.0	566.1
60.44	580.0	566.1
60.45	580.0	566.2
60.46	579.0	566.2
60.47	566.0	566.2
60.48	577.0	566.2
60.49	584.0	566.3
60.5	574.0	566.3
60.51	572.0	566.3
60.52	575.0	566.3
60.53	596.0	566.3
60.54	572.0	566.4
60.55	566.0	566.4
60.56	589.0	566.4
60.57	571.0	566.4
60.58	587.0	566.4
60.59	577.0	566.5
60.6	559.0	566.5
60.61	553.0	566.5
60.62	591.0	566.5
60.63	575.0	566.5
60.64	567.0	566.6
60.65	567.0	566.6
60.66	573.0	566.6
60.67	590.0	566.6
60.68	591.0	566.6
60.69	593.0	566.6
60.7	588.0	566.7
60.71	585.0	566.7
60.72	583.0	566.7
60.73	607.0	566.7
60.74	608.0	566.7
60.75	571.0	566.7
60.76	585.0	566.8
60.77	611.0	566.8
60.78	583.0	566.8
60.79	578.0	566.8
60.8	597.0	566.8
60.81	601.0	566.8
60.82	588.0	566.8
60.83	591.0	566.8
60.84	579.0	566.8
60.85	571.0	566.9
60.86	583.0	566.9
60.87	576.0	566.9
60.88	576.0	566.9
60.89	606.0	566.9
60.9	610.0	566.9
60.91	598.0	566.9
60.92	568.0	566.9
60.93	582.0	566.9
60.94	574.0	566.9
60.95	596.0	566.9
60.96	613.0	567.0
60.97	582.0	567.0
60.98	600.0	567.0
60.99	624.0	567.0
61.0	648.0	567.0
61.01	616.0	567.0
61.02	589.0	567.0
61.03	551.0	567.0
61.04	568.0	567.0
61.05	575.0	567.0
61.06	576.0	567.0
61.07	592.0	567.0
61.08	584.0	567.0
61.09	559.0	567.0
61.1	579.0	567.0
61.11	597.0	567.0
61.12	591.0	567.0
61.13	585.0	567.0
61.14	589.0	567.0
61.15	590.0	567.0
61.16	596.0	567.0
61.17	611.0	567.0
61.18	616.0	567.0
61.19	608.0	567.0
61.2	583.0	567.0
61.21	616.0	567.0
61.22	603.0	567.0
61.23	572.0	567.0
61.24	612.0	567.0
61.25	600.0	567.0
61.26	620.0	567.0
61.27	626.0	567.0
61.28	595.0	567.0
61.29	587.0	567.0
61.3	598.0	567.0
61.31	609.0	567.0
61.32	622.0	567.0
61.33	603.0	567.0
61.34	600.0	567.0
61.35	605.0	566.9
61.36	583.0	566.9
61.37	590.0	566.9
61.38	608.0	566.9
61.39	590.0	566.9
61.4	590.0	566.9
61.41	589.0	566.9
61.42	567.0	566.9
61.43	586.0	566.9
61.44	623.0	566.9
61.45	608.0	566.9
61.46	581.0	566.9
61.47	581.0	566.8
61.48	594.0	566.8
61.49	616.0	566.8
61.5	628.0	566.8
61.51	643.0	566.8
61.52	647.0	566.8
61.53	633.0	566.8
61.54	620.0	566.8
61.55	628.0	566.7
61.56	619.0	566.7
61.57	596.0	566.7
61.58	635.0	566.7
61.59	632.0	566.7
61.6	623.0	566.7
61.61	627.0	566.7
61.62	632.0	566.6
61.63	637.0	566.6
61.64	652.0	566.6
61.65	663.0	566.6
61.66	633.0	566.6
61.67	647.0	566.6
61.68	620.0	566.5
61.69	636.0	566.5
61.7	638.0	566.5
61.71	632.0	566.5
61.72	622.0	566.5
61.73	610.0	566.4
61.74	604.0	566.4
61.75	622.0	566.4
61.76	638.0	566.4
61.77	634.0	566.4
61.78	639.0	566.3
61.79	628.0	566.3
61.8	629.0	566.3
61.81	653.0	566.3
61.82	691.0	566.3
61.83	629.0	566.2
61.84	646.0	566.2
61.85	659.0	566.2
61.86	645.0	566.2
61.87	628.0	566.1
61.88	628.0	566.1
61.89	644.0	566.1
61.9	643.0	566.1
61.91	644.0	566.0
61.92	638.0	566.0
61.93	667.0	566.0
61.94	660.0	566.0
61.95	635.0	565.9
61.96	642.0	565.9
61.97	666.0	565.9
61.98	655.0	565.8
61.99	653.0	565.8
62.0	675.0	565.8
62.01	681.0	565.8
62.02	655.0	565.7
62.03	652.0	565.7
62.04	692.0	565.7
62.05	688.0	565.6
62.06	673.0	565.6
62.07	691.0	565.6
62.08	689.0	565.6
62.09	669.0	565.5
62.1	673.0	565.5
62.11	668.0	565.5
62.12	682.0	565.4
62.13	710.0	565.4
62.14	721.0	565.4
62.15	689.0	565.3
62.16	695.0	565.3
62.17	706.0	565.3
62.18	697.0	565.2
62.19	696.0	565.2
62.2	717.0	565.2
62.21	729.0	565.1
62.22	715.0	565.1
62.23	690.0	565.1
62.24	661.0	565.0
62.25	730.0	565.0
62.26	695.0	564.9
62.27	695.0	564.9
62.28	721.0	564.9
62.29	706.0	564.8
62.3	700.0	564.8
62.31	690.0	564.8
62.32	730.0	564.7
62.33	725.0	564.7
62.34	729.0	564.6
62.35	755.0	564.6
62.36	762.0	564.6
62.37	715.0	564.5
62.38	718.0	564.5
62.39	763.0	564.4
62.4	770.0	564.4
62.41	791.0	564.3
62.42	812.0	564.3
62.43	771.0	564.3
62.44	781.0	564.2
62.45	773.0	564.2
62.46	795.0	564.1
62.47	759.0	564.1
62.48	782.0	564.0
62.49	829.0	564.0
62.5	800.0	564.0
62.51	798.0	563.9
62.52	798.0	563.9
62.53	815.0	563.8
62.54	807.0	563.8
62.55	798.0	563.7
62.56	834.0	563.7
62.57	871.0	563.6
62.58	858.0	563.6
62.59	851.0	563.5
62.6	855.0	563.5
62.61	860.0	563.4
62.62	860.0	563.4
62.63	899.0	563.4
62.64	915.0	563.3
62.65	923.0	563.3
62.66	910.0	563.2
62.67	897.0	563.2
62.68	909.0	563.1
62.69	896.0	563.1
62.7	922.0	563.0
62.71	979.0	563.0
62.72	955.0	562.9
62.73	935.0	562.8
62.74	939.0	562.8
62.75	988.0	562.7
62.76	985.0	562.7
62.77	954.0	562.6
62.78	983.0	562.6
62.79	999.0	562.5
62.8	986.0	562.5
62.81	1000.0	562.4
62.82	1002.0	562.4
62.83	1005.0	562.3
62.84	1047.0	562.3
62.85	1073.0	562.2
62.86	1120.0	562.1
62.87	1119.0	562.1
62.88	1134.0	562.0
62.89	1110.0	562.0
62.9	1118.0	561.9
62.91	1102.0	561.9
62.92	1108.0	561.8
62.93	1116.0	561.7
62.94	1151.0	561.7
62.95	1153.0	561.6
62.96	1195.0	561.6
62.97	1230.0	561.5
62.98	1199.0	561.5
62.99	1211.0	561.4
63.0	1212.0	561.3
63.01	1208.0	561.3
63.02	1257.0	561.2
63.03	1278.0	561.1
63.04	1286.0	561.1
63.05	1286.0	561.0
63.06	1297.0	561.0
63.07	1353.0	560.9
63.08	1338.0	560.8
63.09	1379.0	560.8
63.1	1383.0	560.7
63.11	1450.0	560.6
63.12	1389.0	560.6
63.13	1424.0	560.5
63.14	1463.0	560.5
63.15	1456.0	560.4
63.16	1504.0	560.3
63.17	1528.0	560.3
63.18	1571.0	560.2
63.19	1583.0	560.1
63.2	1587.0	560.1
63.21	1607.0	560.0
63.22	1654.0	559.9
63.23	1724.0	559.9
63.24	1761.0	559.8
63.25	1708.0	559.7
63.26	1735.0	559.7
63.27	1734.0	559.6
63.28	1798.0	559.5
63.29	1807.0	559.5
63.3	1830.0	559.4
63.31	1880.0	559.3
63.32	1896.0	559.2
63.33	1911.0	559.2
63.34	1924.0	559.1
63.35	1938.0	559.0
63.36	1937.0	559.0
63.37	1940.0	558.9
63.38	1999.0	558.8
63.39	1951.0	558.7
63.4	2005.0	558.7
63.41	2051.0	558.6
63.42	2069.0	558.5
63.43	2065.0	558.5
63.44	2014.0	558.4
63.45	2081.0	558.3
63.46	2117.0	558.2
63.47	2053.0	558.2
63.48	2042.0	558.1
63.49	2081.0	558.0
63.5	2137.0	557.9
63.51	2126.0	557.9
63.52	2087.0	557.8
63.53	2158.0	557.7
63.54	2122.0	557.6
63.55	2033.0	557.6
63.56	1982.0	557.5
63.57	1960.0	557.4
63.58	1923.0	557.3
63.59	1927.0	557.2
63.6	1933.0	557.2
63.61	1916.0	557.1
63.62	1897.0	557.0
63.63	1880.0	556.9
63.64	1822.0	556.8
63.65	1739.0	556.8
63.66	1759.0	556.7
63.67	1770.0	556.6
63.68	1764.0	556.5
63.69	1768.0	556.4
63.7	1716.0	556.4
63.71	1717.0	556.3
63.72	1700.0	556.2
63.73	1656.0	556.1
63.74	1602.0	556.0
63.75	1564.0	556.0
63.76	1556.0	555.9
63.77	1575.0	555.8
63.78	1525.0	555.7
63.79	1513.0	555.6
63.8	1462.0	555.5
63.81	1448.0	555.4
63.82	1468.0	555.4
63.83	1431.0	555.3
63.84	1393.0	555.2
63.85	1341.0	555.1
63.86	1318.0	555.0
63.87	1300.0	554.9
63.88	1288.0	554.8
63.89	1270.0	554.8
63.9	1211.0	554.7
63.91	1220.0	554.6
63.92	1181.0	554.5
63.93	1162.0	554.4
63.94	1157.0	554.3
63.95	1166.0	554.2
63.96	1162.0	554.1
63.97	1193.0	554.1
63.98	1106.0	554.0
63.99	1104.0	553.9
64.0	1110.0	553.8
64.01	1091.0	553.7
64.02	1063.0	553.6
64.03	1055.0	553.5
64.04	1043.0	553.4
64.05	1018.0	553.3
64.06	1036.0	553.2
64.07	1012.0	553.1
64.08	1008.0	553.1
64.09	998.0	553.0
64.1	952.0	552.9
64.11	920.0	552.8
64.12	932.0	552.7
64.13	918.0	552.6
64.14	937.0	552.5
64.15	931.0	552.4
64.16	922.0	552.3
64.17	936.0	552.2
64.18	888.0	552.1
64.19	829.0	552.0
64.2	859.0	551.9
64.21	881.0	551.8
64.22	866.0	551.7
64.23	856.0	551.6
64.24	850.0	551.5
64.25	840.0	551.4
64.26	850.0	551.3
64.27	836.0	551.2
64.28	822.0	551.1
64.29	841.0	551.0
64.3	814.0	550.9
64.31	824.0	550.8
64.32	812.0	550.8
64.33	812.0	550.7
64.34	802.0	550.6
64.35	792.0	550.5
64.36	786.0	550.4
64.37	749.0	550.3
64.38	752.0	550.1
64.39	734.0	550.0
64.4	752.0	549.9
64.41	743.0	549.8
64.42	733.0	549.7
64.43	764.0	549.6
64.44	744.0	549.5
64.45	717.0	549.4
64.46	744.0	549.3
64.47	701.0	549.2
64.48	707.0	549.1
64.49	720.0	549.0
64.5	727.0	548.9
64.51	703.0	548.8
64.52	688.0	548.7
64.53	714.0	548.6
64.54	706.0	548.5
64.55	701.0	548.4
64.56	701.0	548.3
64.57	695.0	548.2
64.58	688.0	548.1
64.59	681.0	548.0
64.6	681.0	547.9
64.61	690.0	547.7
64.62	670.0	547.6
64.63	678.0	547.5
64.64	667.0	547.4
64.65	654.0	547.3
64.66	658.0	547.2
64.67	656.0	547.1
64.68	669.0	547.0
64.69	665.0	546.9
64.7	662.0	546.8
64.71	654.0	546.7
64.72	634.0	546.6
64.73	636.0	546.4
64.74	645.0	546.3
64.75	649.0	546.2
64.76	628.0	546.1
64.77	657.0	546.0
64.78	662.0	545.9
64.79	612.0	545.8
64.8	608.0	545.7
64.81	652.0	545.5
64.82	627.0	545.4
64.83	634.0	545.3
64.84	628.0	545.2
64.85	648.0	545.1
64.86	615.0	545.0
64.87	598.0	544.9
64.88	640.0	544.7
64.89	627.0	544.6
64.9	614.0	544.5
64.91	603.0	544.4
64.92	600.0	544.3
64.93	597.0	544.2
64.94	585.0	544.1
64.95	543.0	543.9
64.96	586.0	543.8
64.97	591.0	543.7
64.98	584.0	543.6
64.99	605.0	543.5
65.0	619.0	543.3
65.01	596.0	543.2
65.02	582.0	543.1
65.03	579.0	543.0
65.04	597.0	542.9
65.05	569.0	542.8
65.06	598.0	542.6
65.07	613.0	542.5
65.08	606.0	542.4
65.09	576.0	542.3
65.1	572.0	542.2
65.11	543.0	542.0
65.12	568.0	541.9
65.13	583.0	541.8
65.14	575.0	541.7
65.15	574.0	541.5
65.16	596.0	541.4
65.17	585.0	541.3
65.18	586.0	541.2
65.19	562.0	541.1
65.2	561.0	540.9
65.21	589.0	540.8
65.22	556.0	540.7
65.23	572.0	540.6
65.24	541.0	540.4
65.25	545.0	540.3
65.26	598.0	540.2
65.27	575.0	540.1
65.28	571.0	539.9
65.29	555.0	539.8
65.3	576.0	539.7
65.31	563.0	539.6
65.32	546.0	539.4
65.33	559.0	539.3
65.34	551.0	539.2
65.35	546.0	539.0
65.36	563.0	538.9
65.37	569.0	538.8
65.38	578.0	538.7
65.39	563.0	538.5
65.4	569.0	538.4
65.41	564.0	538.3
65.42	547.0	538.1
65.43	568.0	538.0
65.44	562.0	537.9
65.45	565.0	537.8
65.46	562.0	537.6
65.47	548.0	537.5
65.48	584.0	537.4
65.49	590.0	537.2
65.5	570.0	537.1
65.51	573.0	537.0
65.52	564.0	536.8
65.53	560.0	536.7
65.54	566.0	536.6
65.55	571.0	536.4
65.56	560.0	536.3
65.57	571.0	536.2
65.58	552.0	536.0
65.59	558.0	535.9
65.6	557.0	535.8
65.61	542.0	535.6
65.62	566.0	535.5
65.63	567.0	535.4
65.64	563.0	535.2
65.65	541.0	535.1
65.66	546.0	535.0
65.67	540.0	534.8
65.68	561.0	534.7
65.69	534.0	534.6
65.7	560.0	534.4
65.71	522.0	534.3
65.72	530.0	534.2
65.73	566.0	534.0
65.74	592.0	533.9
65.75	563.0	533.7
65.76	552.0	533.6
65.77	516.0	533.5
65.78	519.0	533.3
65.79	560.0	533.2
65.8	586.0	533.0
65.81	571.0	532.9
65.82	561.0	532.8
65.83	573.0	532.6
65.84	547.0	532.5
65.85	540.0	532.3
65.86	559.0	532.2
65.87	556.0	532.1
65.88	551.0	531.9
65.89	525.0	531.8
65.9	558.0	531.6
65.91	554.0	531.5
65.92	572.0	531.4
65.93	581.0	531.2
65.94	556.0	531.1
65.95	544.0	530.9
65.96	552.0	530.8
65.97	553.0	530.6
65.98	563.0	530.5
65.99	557.0	530.4
66.0	552.0	530.2
66.01	538.0	530.1
66.02	544.0	529.9
66.03	557.0	529.8
66.04	546.0	529.6
66.05	524.0	529.5
66.06	540.0	529.3
66.07	537.0	529.2
66.08	548.0	529.1
66.09	555.0	528.9
66.1	550.0	528.8
66.11	538.0	528.6
66.12	568.0	528.5
66.13	564.0	528.3
66.14	552.0	528.2
66.15	553.0	528.0
66.16	564.0	527.9
66.17	563.0	527.7
66.18	581.0	527.6
66.19	572.0	527.4
66.2	571.0	527.3
66.21	592.0	527.1
66.22	574.0	527.0
66.23	567.0	526.8
66.24	562.0	526.7
66.25	559.0	526.5
66.26	560.0	526.4
66.27	579.0	526.2
66.28	567.0	526.1
66.29	587.0	525.9
66.3	568.0	525.8
66.31	522.0	525.6
66.32	559.0	525.5
66.33	584.0	525.3
66.34	545.0	525.2
66.35	541.0	525.0
66.36	569.0	524.9
66.37	577.0	524.7
66.38	581.0	524.6
66.39	573.0	524.4
66.4	560.0	524.2
66.41	537.0	524.1
66.42	536.0	523.9
66.43	564.0	523.8
66.44	545.0	523.6
66.45	557.0	523.5
66.46	552.0	523.3
66.47	576.0	523.2
66.48	556.0	523.0
66.49	570.0	522.9
66.5	603.0	522.7
66.51	607.0	522.5
66.52	624.0	522.4
66.53	599.0	522.2
66.54	606.0	522.1
66.55	592.0	521.9
66.56	586.0	521.8
66.57	562.0	521.6
66.58	572.0	521.4
66.59	584.0	521.3
66.6	585.0	521.1
66.61	582.0	521.0
66.62	580.0	520.8
66.63	584.0	520.6
66.64	568.0	520.5
66.65	595.0	520.3
66.66	600.0	520.2
66.67	607.0	520.0
66.68	633.0	519.8
66.69	598.0	519.7
66.7	599.0	519.5
66.71	583.0	519.4
66.72	626.0	519.2
66.73	622.0	519.0
66.74	611.0	518.9
66.75	577.0	518.7
66.76	605.0	518.5
66.77	628.0	518.4
66.78	603.0	518.2
66.79	596.0	518.1
66.8	596.0	517.9
66.81	593.0	517.7
66.82	583.0	517.6
66.83	560.0	517.4
66.84	563.0	517.2
66.85	614.0	517.1
66.86	610.0	516.9
66.87	605.0	516.7
66.88	580.0	516.6
66.89	548.0	516.4
66.9	575.0	516.2
66.91	565.0	516.1
66.92	588.0	515.9
66.93	539.0	515.7
66.94	586.0	515.6
66.95	612.0	515.4
66.96	574.0	515.2
66.97	605.0	515.1
66.98	583.0	514.9
66.99	595.0	514.7
67.0	584.0	514.6
67.01	565.0	514.4
67.02	578.0	514.2
67.03	589.0	514.1
67.04	571.0	513.9
67.05	552.0	513.7
67.06	563.0	513.6
67.07	550.0	513.4
67.08	544.0	513.2
67.09	563.0	513.1
67.1	574.0	512.9
67.11	582.0	512.7
67.12	564.0	512.5
67.13	549.0	512.4
67.14	567.0	512.2
67.15	545.0	512.0
67.16	533.0	511.9
67.17	545.0	511.7
67.18	553.0	511.5
67.19	539.0	511.3
67.2	544.0	511.2
67.21	574.0	511.0
67.22	545.0	510.8
67.23	542.0	510.6
67.24	543.0	510.5
67.25	532.0	510.3
67.26	537.0	510.1
67.27	555.0	510.0
67.28	550.0	509.8
67.29	555.0	509.6
67.3	524.0	509.4
67.31	531.0	509.3
67.32	524.0	509.1
67.33	537.0	508.9
67.34	520.0	508.7
67.35	545.0	508.5
67.36	517.0	508.4
67.37	554.0	508.2
67.38	492.0	508.0
67.39	506.0	507.8
67.4	542.0	507.7
67.41	539.0	507.5
67.42	510.0	507.3
67.43	507.0	507.1
67.44	495.0	507.0
67.45	496.0	506.8
67.46	513.0	506.6
67.47	514.0	506.4
67.48	509.0	506.2
67.49	533.0	506.1
67.5	541.0	505.9
67.51	546.0	505.7
67.52	510.0	505.5
67.53	517.0	505.3
67.54	517.0	505.2
67.55	523.0	505.0
67.56	482.0	504.8
67.57	501.0	504.6
67.58	530.0	504.4
67.59	526.0	504.3
67.6	505.0	504.1
67.61	497.0	503.9
67.62	524.0	503.7
67.63	522.0	503.5
67.64	495.0	503.3
67.65	510.0	503.2
67.66	505.0	503.0
67.67	500.0	502.8
67.68	505.0	502.6
67.69	505.0	502.4
67.7	487.0	502.2
67.71	490.0	502.1
67.72	501.0	501.9
67.73	489.0	501.7
67.74	494.0	501.5
67.75	506.0	501.3
67.76	458.0	501.1
67.77	485.0	501.0
67.78	490.0	500.8
67.79	493.0	500.6
67.8	488.0	500.4
67.81	511.0	500.2
67.82	518.0	500.0
67.83	468.0	499.8
67.84	483.0	499.7
67.85	500.0	499.5
67.86	482.0	499.3
67.87	479.0	499.1
67.88	507.0	498.9
67.89	523.0	498.7
67.9	513.0	498.5
67.91	514.0	498.3
67.92	508.0	498.2
67.93	489.0	498.0
67.94	496.0	497.8
67.95	512.0	497.6
67.96	492.0	497.4
67.97	480.0	497.2
67.98	473.0	497.0
67.99	471.0	496.8
68.0	475.0	496.6
68.01	467.0	496.5
68.02	497.0	496.3
68.03	473.0	496.1
68.04	500.0	495.9
68.05	507.0	495.7
68.06	486.0	495.5
68.07	496.0	495.3
68.08	481.0	495.1
68.09	466.0	494.9
68.1	490.0	494.7
68.11	496.0	494.5
68.12	481.0	494.4
68.13	505.0	494.2
68.14	496.0	494.0
68.15	459.0	493.8
68.16	505.0	493.6
68.17	493.0	493.4
68.18	471.0	493.2
68.19	490.0	493.0
68.2	489.0	492.8
68.21	454.0	492.6
68.22	497.0	492.4
68.23	501.0	492.2
68.24	503.0	492.0
68.25	478.0	491.8
68.26	482.0	491.7
68.27	465.0	491.5
68.28	472.0	491.3
68.29	495.0	491.1
68.3	471.0	490.9
68.31	457.0	490.7
68.32	479.0	490.5
68.33	506.0	490.3
68.34	522.0	490.1
68.35	512.0	489.9
68.36	500.0	489.7
68.37	493.0	489.5
68.38	489.0	489.3
68.39	478.0	489.1
68.4	468.0	488.9
68.41	449.0	488.7
68.42	470.0	488.5
68.43	501.0	488.3
68.44	500.0	488.1
68.45	481.0	487.9
68.46	471.0	487.7
68.47	482.0	487.6
68.48	488.0	487.4
68.49	459.0	487.2
68.5	478.0	487.0
68.51	497.0	486.8
68.52	471.0	486.6
68.53	474.0	486.4
68.54	479.0	486.2
68.55	486.0	486.0
68.56	495.0	485.8
68.57	488.0	485.6
68.58	454.0	485.4
68.59	481.0	485.2
68.6	469.0	485.0
68.61	473.0	484.8
68.62	478.0	484.6
68.63	512.0	484.4
68.64	490.0	484.2
68.65	494.0	484.0
68.66	495.0	483.8
68.67	481.0	483.6
68.68	472.0	483.4
68.69	463.0	483.2
68.7	454.0	483.0
68.71	460.0	482.8
68.72	488.0	482.6
68.73	499.0	482.4
68.74	480.0	482.2
68.75	465.0	482.0
68.76	497.0	481.8
68.77	505.0	481.6
68.78	510.0	481.4
68.79	495.0	481.2
68.8	489.0	481.0
68.81	463.0	480.8
68.82	480.0	480.6
68.83	479.0	480.4
68.84	463.0	480.2
68.85	500.0	480.0
68.86	485.0	479.8
68.87	448.0	479.6
68.88	454.0	479.4
68.89	455.0	479.2
68.9	465.0	479.0
68.91	484.0	478.8
68.92	484.0	478.6
68.93	471.0	478.4
68.94	471.0	478.2
68.95	486.0	478.0
68.96	464.0	477.8
68.97	467.0	477.6
68.98	489.0	477.4
68.99	469.0	477.2
69.0	467.0	477.0
69.01	462.0	476.8
69.02	476.0	476.6
69.03	469.0	476.4
69.04	468.0	476.2
69.05	466.0	476.0
69.06	456.0	475.7
69.07	440.0	475.5
69.08	436.0	475.3
69.09	480.0	475.1
69.1	489.0	474.9
69.11	485.0	474.7
69.12	469.0	474.5
69.13	468.0	474.3
69.14	448.0	474.1
69.15	457.0	473.9
69.16	481.0	473.7
69.17	494.0	473.5
69.18	476.0	473.3
69.19	482.0	473.1
69.2	492.0	472.9
69.21	478.0	472.7
69.22	461.0	472.5
69.23	454.0	472.3
69.24	469.0	472.1
69.25	487.0	471.9
69.26	440.0	471.7
69.27	476.0	471.5
69.28	472.0	471.3
69.29	456.0	471.1
69.3	442.0	470.9
69.31	460.0	470.7
69.32	482.0	470.5
69.33	490.0	470.3
69.34	472.0	470.0
69.35	435.0	469.8
69.36	431.0	469.6
69.37	463.0	469.4
69.38	474.0	469.2
69.39	469.0	469.0
69.4	478.0	468.8
69.41	445.0	468.6
69.42	436.0	468.4
69.43	465.0	468.2
69.44	471.0	468.0
69.45	449.0	467.8
69.46	466.0	467.6
69.47	468.0	467.4
69.48	462.0	467.2
69.49	441.0	467.0
69.5	455.0	466.8
69.51	454.0	466.6
69.52	438.0	466.4
69.53	454.0	466.2
69.54	458.0	466.0
69.55	451.0	465.7
69.56	468.0	465.5
69.57	454.0	465.3
69.58	434.0	465.1
69.59	470.0	464.9
69.6	453.0	464.7
69.61	420.0	464.5
69.62	437.0	464.3
69.63	459.0	464.1
69.64	441.0	463.9
69.65	453.0	463.7
69.66	462.0	463.5
69.67	448.0	463.3
69.68	459.0	463.1
69.69	479.0	462.9
69.7	461.0	462.7
69.71	467.0	462.5
69.72	471.0	462.3
69.73	452.0	462.1
69.74	442.0	461.8
69.75	443.0	461.6
69.76	460.0	461.4
69.77	468.0	461.2
69.78	462.0	461.0
69.79	450.0	460.8
69.8	470.0	460.6
69.81	456.0	460.4
69.82	437.0	460.2
69.83	473.0	460.0
69.84	473.0	459.8
69.85	461.0	459.6
69.86	471.0	459.4
69.87	452.0	459.2
69.88	444.0	459.0
69.89	450.0	458.8
69.9	434.0	458.6
69.91	476.0	458.4
69.92	471.0	458.2
69.93	465.0	457.9
69.94	458.0	457.7
69.95	443.0	457.5
69.96	458.0	457.3
69.97	447.0	457.1
69.98	453.0	456.9
69.99	450.0	456.7
70.0	457.0	456.5
70.01	472.0	456.3
70.02	477.0	456.1
70.03	457.0	455.9
70.04	463.0	455.7
70.05	465.0	455.5
70.06	451.0	455.3
70.07	457.0	455.1
70.08	458.0	454.9
70.09	449.0	454.7
70.1	469.0	454.5
70.11	454.0	454.3
70.12	458.0	454.0
70.13	477.0	453.8
70.14	474.0	453.6
70.15	475.0	453.4
70.16	458.0	453.2
70.17	463.0	453.0
70.18	450.0	452.8
70.19	453.0	452.6
70.2	470.0	452.4
70.21	468.0	452.2
70.22	479.0	452.0
70.23	463.0	451.8
70.24	466.0	451.6
70.25	453.0	451.4
70.26	460.0	451.2
70.27	469.0	451.0
70.28	459.0	450.8
70.29	448.0	450.6
70.3	453.0	450.4
70.31	457.0	450.2
70.32	456.0	450.0
70.33	445.0	449.8
70.34	464.0	449.6
70.35	455.0	449.4
70.36	456.0	449.1
70.37	465.0	448.9
70.38	477.0	448.7
70.39	467.0	448.5
70.4	452.0	448.3
70.41	461.0	448.1
70.42	471.0	447.9
70.43	472.0	447.7
70.44	468.0	447.5
70.45	462.0	447.3
70.46	456.0	447.1
70.47	477.0	446.9
70.48	473.0	446.7
70.49	468.0	446.5
70.5	454.0	446.3
70.51	413.0	446.1
70.52	436.0	445.9
70.53	459.0	445.7
70.54	472.0	445.5
70.55	478.0	445.3
70.56	468.0	445.1
70.57	441.0	444.9
70.58	427.0	444.7
70.59	427.0	444.5
70.6	446.0	444.3
70.61	436.0	444.1
70.62	456.0	443.9
70.63	473.0	443.7
70.64	463.0	443.5
70.65	459.0	443.3
70.66	456.0	443.1
70.67	459.0	442.9
70.68	449.0	442.7
70.69	439.0	442.5
70.7	455.0	442.3
70.71	452.0	442.1
70.72	461.0	441.9
70.73	453.0	441.7
70.74	454.0	441.5
70.75	433.0	441.3
70.76	431.0	441.1
70.77	437.0	440.9
70.78	421.0	440.7
70.79	434.0	440.5
70.8	431.0	440.3
70.81	475.0	440.1
70.82	443.0	439.9
70.83	419.0	439.7
70.84	433.0	439.5
70.85	437.0	439.3
70.86	429.0	439.1
70.87	424.0	438.9
70.88	428.0	438.7
70.89	440.0	438.5
70.9	441.0	438.3
70.91	440.0	438.1
70.92	428.0	437.9
70.93	421.0	437.7
70.94	447.0	437.5
70.95	439.0	437.3
70.96	435.0	437.1
70.97	451.0	436.9
70.98	438.0	436.7
70.99	435.0	436.5
71.0	440.0	436.3
71.01	446.0	436.1
71.02	427.0	435.9
71.03	415.0	435.7
71.04	433.0	435.5
71.05	430.0	435.3
71.06	430.0	435.1
71.07	424.0	434.9
71.08	454.0	434.7
71.09	460.0	434.5
71.1	418.0	434.3
71.11	428.0	434.1
71.12	452.0	433.9
71.13	440.0	433.7
71.14	449.0	433.5
71.15	450.0	433.3
71.16	424.0	433.1
71.17	409.0	432.9
71.18	443.0	432.7
71.19	416.0	432.5
71.2	396.0	432.3
71.21	431.0	432.1
71.22	435.0	431.9
71.23	431.0	431.7
71.24	431.0	431.6
71.25	443.0	431.4
71.26	432.0	431.2
71.27	445.0	431.0
71.28	442.0	430.8
71.29	429.0	430.6
71.3	415.0	430.4
71.31	433.0	430.2
71.32	428.0	430.0
71.33	421.0	429.8
71.34	431.0	429.6
71.35	430.0	429.4
71.36	424.0	429.2
71.37	435.0	429.0
71.38	450.0	428.8
71.39	428.0	428.6
71.4	421.0	428.5
71.41	421.0	428.3
71.42	432.0	428.1
71.43	439.0	427.9
71.44	411.0	427.7
71.45	402.0	427.5
71.46	418.0	427.3
71.47	425.0	427.1
71.48	422.0	426.9
71.49	406.0	426.7
71.5	413.0	426.5
71.51	408.0	426.3
71.52	404.0	426.2
71.53	467.0	426.0
71.54	439.0	425.8
71.55	415.0	425.6
71.56	413.0	425.4
71.57	427.0	425.2
71.58	425.0	425.0
71.59	406.0	424.8
71.6	434.0	424.6
71.61	419.0	424.5
71.62	425.0	424.3
71.63	457.0	424.1
71.64	442.0	423.9
71.65	417.0	423.7
71.66	426.0	423.5
71.67	433.0	423.3
71.68	413.0	423.1
71.69	412.0	422.9
71.7	396.0	422.8
71.71	416.0	422.6
71.72	432.0	422.4
71.73	427.0	422.2
71.74	431.0	422.0
71.75	423.0	421.8
71.76	415.0	421.6
71.77	413.0	421.5
71.78	407.0	421.3
71.79	436.0	421.1
71.8	442.0	420.9
71.81	431.0	420.7
71.82	402.0	420.5
71.83	414.0	420.3
71.84	414.0	420.2
71.85	396.0	420.0
71.86	417.0	419.8
71.87	429.0	419.6
71.88	402.0	419.4
71.89	388.0	419.2
71.9	393.0	419.1
71.91	403.0	418.9
71.92	415.0	418.7
71.93	405.0	418.5
71.94	414.0	418.3
71.95	439.0	418.1
71.96	417.0	418.0
71.97	409.0	417.8
71.98	389.0	417.6
71.99	397.0	417.4
72.0	380.0	417.2
72.01	411.0	417.1
72.02	394.0	416.9
72.03	403.0	416.7
72.04	432.0	416.5
72.05	420.0	416.3
72.06	425.0	416.1
72.07	424.0	416.0
72.08	441.0	415.8
72.09	424.0	415.6
72.1	411.0	415.4
72.11	386.0	415.3
72.12	384.0	415.1
72.13	402.0	414.9
72.14	421.0	414.7
72.15	428.0	414.5
72.16	416.0	414.4
72.17	385.0	414.2
72.18	402.0	414.0
72.19	429.0	413.8
72.2	425.0	413.7
72.21	398.0	413.5
72.22	400.0	413.3
72.23	408.0	413.1
72.24	411.0	413.0
72.25	405.0	412.8
72.26	416.0	412.6
72.27	410.0	412.4
72.28	410.0	412.3
72.29	412.0	412.1
72.3	402.0	411.9
72.31	401.0	411.7
72.32	430.0	411.6
72.33	431.0	411.4
72.34	413.0	411.2
72.35	405.0	411.0
72.36	422.0	410.9
72.37	427.0	410.7
72.38	439.0	410.5
72.39	446.0	410.3
72.4	422.0	410.2
72.41	374.0	410.0
72.42	394.0	409.8
72.43	427.0	409.7
72.44	433.0	409.5
72.45	418.0	409.3
72.46	416.0	409.2
72.47	417.0	409.0
72.48	417.0	408.8
72.49	403.0	408.6
72.5	428.0	408.5
72.51	410.0	408.3
72.52	393.0	408.1
72.53	430.0	408.0
72.54	442.0	407.8
72.55	429.0	407.6
72.56	420.0	407.5
72.57	414.0	407.3
72.58	400.0	407.1
72.59	397.0	407.0
72.6	407.0	406.8
72.61	402.0	406.6
72.62	386.0	406.5
72.63	391.0	406.3
72.64	405.0	406.1
72.65	438.0	406.0
72.66	413.0	405.8
72.67	436.0	405.6
72.68	444.0	405.5
72.69	431.0	405.3
72.7	401.0	405.2
72.71	406.0	405.0
72.72	417.0	404.8
72.73	407.0	404.7
72.74	389.0	404.5
72.75	402.0	404.3
72.76	421.0	404.2
72.77	408.0	404.0
72.78	404.0	403.9
72.79	411.0	403.7
72.8	412.0	403.5
72.81	425.0	403.4
72.82	424.0	403.2
72.83	413.0	403.1
72.84	410.0	402.9
72.85	424.0	402.7
72.86	412.0	402.6
72.87	405.0	402.4
72.88	396.0	402.3
72.89	401.0	402.1
72.9	425.0	401.9
72.91	415.0	401.8
72.92	403.0	401.6
72.93	409.0	401.5
72.94	421.0	401.3
72.95	396.0	401.2
72.96	377.0	401.0
72.97	399.0	400.9
72.98	407.0	400.7
72.99	403.0	400.5
73.0	416.0	400.4
73.01	413.0	400.2
73.02	403.0	400.1
73.03	409.0	399.9
73.04	393.0	399.8
73.05	414.0	399.6
73.06	386.0	399.5
73.07	415.0	399.3
73.08	438.0	399.2
73.09	426.0	399.0
73.1	422.0	398.9
73.11	405.0	398.7
73.12	407.0	398.6
73.13	422.0	398.4
73.14	409.0	398.3
73.15	422.0	398.1
73.16	425.0	398.0
73.17	429.0	397.8
73.18	425.0	397.7
73.19	413.0	397.5
73.2	413.0	397.4
73.21	421.0	397.2
73.22	412.0	397.1
73.23	407.0	396.9
73.24	420.0	396.8
73.25	414.0	396.6
73.26	404.0	396.5
73.27	422.0	396.3
73.28	412.0	396.2
73.29	399.0	396.1
73.3	378.0	395.9
73.31	382.0	395.8
73.32	400.0	395.6
73.33	433.0	395.5
73.34	424.0	395.3
73.35	388.0	395.2
73.36	397.0	395.1
73.37	425.0	394.9
73.38	424.0	394.8
73.39	421.0	394.6
73.4	402.0	394.5
73.41	400.0	394.3
73.42	398.0	394.2
73.43	401.0	394.1
73.44	410.0	393.9
73.45	418.0	393.8
73.46	414.0	393.6
73.47	417.0	393.5
73.48	390.0	393.4
73.49	401.0	393.2
73.5	395.0	393.1
73.51	392.0	393.0
73.52	412.0	392.8
73.53	431.0	392.7
73.54	416.0	392.6
73.55	420.0	392.4
73.56	411.0	392.3
73.57	419.0	392.1
73.58	420.0	392.0
73.59	413.0	391.9
73.6	397.0	391.7
73.61	406.0	391.6
73.62	417.0	391.5
73.63	407.0	391.3
73.64	417.0	391.2
73.65	406.0	391.1
73.66	414.0	391.0
73.67	406.0	390.8
73.68	399.0	390.7
73.69	405.0	390.6
73.7	428.0	390.4
73.71	394.0	390.3
73.72	396.0	390.2
73.73	393.0	390.0
73.74	401.0	389.9
73.75	385.0	389.8
73.76	404.0	389.7
73.77	440.0	389.5
73.78	439.0	389.4
73.79	428.0	389.3
73.8	399.0	389.2
73.81	400.0	389.0
73.82	432.0	388.9
73.83	413.0	388.8
73.84	405.0	388.7
73.85	390.0	388.5
73.86	398.0	388.4
73.87	396.0	388.3
73.88	394.0	388.2
73.89	399.0	388.0
73.9	403.0	387.9
73.91	369.0	387.8
73.92	407.0	387.7
73.93	390.0	387.6
73.94	403.0	387.4
73.95	404.0	387.3
73.96	407.0	387.2
73.97	399.0	387.1
73.98	388.0	387.0
73.99	398.0	386.8
74.0	400.0	386.7
74.01	388.0	386.6
74.02	387.0	386.5
74.03	419.0	386.4
74.04	412.0	386.3
74.05	380.0	386.1
74.06	383.0	386.0
74.07	400.0	385.9
74.08	414.0	385.8
74.09	416.0	385.7
74.1	398.0	385.6
74.11	407.0	385.5
74.12	427.0	385.3
74.13	422.0	385.2
74.14	427.0	385.1
74.15	399.0	385.0
74.16	393.0	384.9
74.17	393.0	384.8
74.18	400.0	384.7
74.19	395.0	384.6
74.2	412.0	384.5
74.21	418.0	384.3
74.22	418.0	384.2
74.23	416.0	384.1
74.24	406.0	384.0
74.25	411.0	383.9
74.26	434.0	383.8
74.27	403.0	383.7
74.28	388.0	383.6
74.29	390.0	383.5
74.3	417.0	383.4
74.31	431.0	383.3
74.32	436.0	383.2
74.33	399.0	383.1
74.34	391.0	383.0
74.35	403.0	382.9
74.36	436.0	382.7
74.37	409.0	382.6
74.38	431.0	382.5
74.39	411.0	382.4
74.4	401.0	382.3
74.41	414.0	382.2
74.42	419.0	382.1
74.43	427.0	382.0
74.44	429.0	381.9
74.45	435.0	381.8
74.46	445.0	381.7
74.47	405.0	381.6
74.48	411.0	381.5
74.49	426.0	381.4
74.5	434.0	381.3
74.51	398.0	381.2
74.52	410.0	381.1
74.53	410.0	381.0
74.54	434.0	380.9
74.55	437.0	380.8
74.56	411.0	380.7
74.57	430.0	380.7
74.58	433.0	380.6
74.59	439.0	380.5
74.6	434.0	380.4
74.61	411.0	380.3
74.62	418.0	380.2
74.63	431.0	380.1
74.64	438.0	380.0
74.65	416.0	379.9
74.66	425.0	379.8
74.67	442.0	379.7
74.68	459.0	379.6
74.69	438.0	379.5
74.7	422.0	379.4
74.71	417.0	379.3
74.72	434.0	379.2
74.73	431.0	379.2
74.74	424.0	379.1
74.75	442.0	379.0
74.76	421.0	378.9
74.77	445.0	378.8
74.78	459.0	378.7
74.79	451.0	378.6
74.8	410.0	378.5
74.81	451.0	378.4
74.82	461.0	378.4
74.83	434.0	378.3
74.84	417.0	378.2
74.85	419.0	378.1
74.86	427.0	378.0
74.87	446.0	377.9
74.88	453.0	377.8
74.89	430.0	377.8
74.9	458.0	377.7
74.91	453.0	377.6
74.92	418.0	377.5
74.93	433.0	377.4
74.94	457.0	377.3
74.95	444.0	377.2
74.96	462.0	377.2
74.97	484.0	377.1
74.98	458.0	377.0
74.99	465.0	376.9
75.0	449.0	376.8
75.01	439.0	376.8
75.02	455.0	376.7
75.03	466.0	376.6
75.04	458.0	376.5
75.05	456.0	376.4
75.06	450.0	376.3
75.07	454.0	376.3
75.08	466.0	376.2
75.09	472.0	376.1
75.1	462.0	376.0
75.11	455.0	376.0
75.12	457.0	375.9
75.13	474.0	375.8
75.14	475.0	375.7
75.15	450.0	375.6
75.16	450.0	375.6
75.17	439.0	375.5
75.18	453.0	375.4
75.19	459.0	375.3
75.2	421.0	375.3
75.21	452.0	375.2
75.22	467.0	375.1
75.23	463.0	375.0
75.24	439.0	375.0
75.25	441.0	374.9
75.26	449.0	374.8
75.27	443.0	374.7
75.28	458.0	374.7
75.29	453.0	374.6
75.3	455.0	374.5
75.31	469.0	374.4
75.32	467.0	374.4
75.33	456.0	374.3
75.34	455.0	374.2
75.35	447.0	374.2
75.36	438.0	374.1
75.37	457.0	374.0
75.38	453.0	373.9
75.39	455.0	373.9
75.4	456.0	373.8
75.41	452.0	373.7
75.42	458.0	373.7
75.43	452.0	373.6
75.44	449.0	373.5
75.45	452.0	373.5
75.46	445.0	373.4
75.47	450.0	373.3
75.48	457.0	373.3
75.49	442.0	373.2
75.5	442.0	373.1
75.51	468.0	373.0
75.52	447.0	373.0
75.53	427.0	372.9
75.54	436.0	372.8
75.55	454.0	372.8
75.56	430.0	372.7
75.57	449.0	372.7
75.58	456.0	372.6
75.59	452.0	372.5
75.6	463.0	372.5
75.61	470.0	372.4
75.62	451.0	372.3
75.63	428.0	372.3
75.64	463.0	372.2
75.65	444.0	372.1
75.66	448.0	372.1
75.67	443.0	372.0
75.68	454.0	371.9
75.69	437.0	371.9
75.7	452.0	371.8
75.71	460.0	371.8
75.72	467.0	371.7
75.73	439.0	371.6
75.74	418.0	371.6
75.75	415.0	371.5
75.76	439.0	371.5
75.77	445.0	371.4
75.78	460.0	371.3
75.79	461.0	371.3
75.8	444.0	371.2
75.81	437.0	371.2
75.82	437.0	371.1
75.83	460.0	371.0
75.84	448.0	371.0
75.85	440.0	370.9
75.86	447.0	370.9
75.87	454.0	370.8
75.88	464.0	370.7
75.89	461.0	370.7
75.9	465.0	370.6
75.91	458.0	370.6
75.92	456.0	370.5
75.93	438.0	370.5
75.94	419.0	370.4
75.95	433.0	370.3
75.96	463.0	370.3
75.97	475.0	370.2
75.98	461.0	370.2
75.99	479.0	370.1
76.0	474.0	370.1
76.01	456.0	370.0
76.02	449.0	370.0
76.03	466.0	369.9
76.04	452.0	369.9
76.05	448.0	369.8
76.06	484.0	369.7
76.07	464.0	369.7
76.08	468.0	369.6
76.09	466.0	369.6
76.1	452.0	369.5
76.11	441.0	369.5
76.12	454.0	369.4
76.13	478.0	369.4
76.14	463.0	369.3
76.15	443.0	369.3
76.16	449.0	369.2
76.17	444.0	369.2
76.18	452.0	369.1
76.19	463.0	369.1
76.2	455.0	369.0
76.21	478.0	369.0
76.22	453.0	368.9
76.23	450.0	368.9
76.24	427.0	368.8
76.25	466.0	368.8
76.26	450.0	368.7
76.27	439.0	368.7
76.28	457.0	368.6
76.29	427.0	368.6
76.3	444.0	368.5
76.31	450.0	368.5
76.32	466.0	368.4
76.33	446.0	368.4
76.34	450.0	368.3
76.35	460.0	368.3
76.36	436.0	368.2
76.37	433.0	368.2
76.38	426.0	368.1
76.39	410.0	368.1
76.4	442.0	368.0
76.41	443.0	368.0
76.42	421.0	368.0
76.43	398.0	367.9
76.44	423.0	367.9
76.45	452.0	367.8
76.46	432.0	367.8
76.47	443.0	367.7
76.48	466.0	367.7
76.49	474.0	367.6
76.5	436.0	367.6
76.51	430.0	367.5
76.52	424.0	367.5
76.53	417.0	367.5
76.54	404.0	367.4
76.55	397.0	367.4
76.56	387.0	367.3
76.57	418.0	367.3
76.58	426.0	367.2
76.59	421.0	367.2
76.6	406.0	367.2
76.61	411.0	367.1
76.62	403.0	367.1
76.63	373.0	367.0
76.64	416.0	367.0
76.65	419.0	366.9
76.66	425.0	366.9
76.67	415.0	366.9
76.68	420.0	366.8
76.69	423.0	366.8
76.7	409.0	366.7
76.71	406.0	366.7
76.72	386.0	366.7
76.73	371.0	366.6
76.74	400.0	366.6
76.75	386.0	366.5
76.76	390.0	366.5
76.77	420.0	366.5
76.78	417.0	366.4
76.79	378.0	366.4
76.8	380.0	366.3
76.81	411.0	366.3
76.82	403.0	366.3
76.83	398.0	366.2
76.84	416.0	366.2
76.85	401.0	366.1
76.86	416.0	366.1
76.87	398.0	366.1
76.88	379.0	366.0
76.89	416.0	366.0
76.9	401.0	365.9
76.91	429.0	365.9
76.92	409.0	365.9
76.93	395.0	365.8
76.94	388.0	365.8
76.95	381.0	365.8
76.96	380.0	365.7
76.97	407.0	365.7
76.98	414.0	365.6
76.99	399.0	365.6
77.0	394.0	365.6
77.01	388.0	365.5
77.02	394.0	365.5
77.03	378.0	365.5
77.04	381.0	365.4
77.05	386.0	365.4
77.06	382.0	365.4
77.07	390.0	365.3
77.08	408.0	365.3
77.09	381.0	365.2
77.1	391.0	365.2
77.11	390.0	365.2
77.12	371.0	365.1
77.13	395.0	365.1
77.14	388.0	365.1
77.15	412.0	365.0
77.16	417.0	365.0
77.17	394.0	365.0
77.18	394.0	364.9
77.19	388.0	364.9
77.2	380.0	364.9
77.21	377.0	364.8
77.22	394.0	364.8
77.23	379.0	364.8
77.24	380.0	364.7
77.25	374.0	364.7
77.26	386.0	364.7
77.27	385.0	364.6
77.28	357.0	364.6
77.29	367.0	364.6
77.3	372.0	364.5
77.31	368.0	364.5
77.32	375.0	364.5
77.33	374.0	364.4
77.34	379.0	364.4
77.35	383.0	364.4
77.36	389.0	364.3
77.37	395.0	364.3
77.38	354.0	364.3
77.39	346.0	364.2
77.4	386.0	364.2
77.41	399.0	364.2
77.42	385.0	364.1
77.43	380.0	364.1
77.44	393.0	364.1
77.45	364.0	364.0
77.46	380.0	364.0
77.47	417.0	364.0
77.48	396.0	364.0
77.49	336.0	363.9
77.5	370.0	363.9
77.51	389.0	363.9
77.52	370.0	363.8
77.53	367.0	363.8
77.54	355.0	363.8
77.55	366.0	363.7
77.56	361.0	363.7
77.57	383.0	363.7
77.58	406.0	363.6
77.59	395.0	363.6
77.6	365.0	363.6
77.61	366.0	363.6
77.62	391.0	363.5
77.63	396.0	363.5
77.64	401.0	363.5
77.65	411.0	363.4
77.66	395.0	363.4
77.67	390.0	363.4
77.68	394.0	363.4
77.69	378.0	363.3
77.7	393.0	363.3
77.71	392.0	363.3
77.72	388.0	363.2
77.73	391.0	363.2
77.74	414.0	363.2
77.75	407.0	363.1
77.76	401.0	363.1
77.77	407.0	363.1
77.78	405.0	363.1
77.79	386.0	363.0
77.8	372.0	363.0
77.81	382.0	363.0
77.82	398.0	362.9
77.83	370.0	362.9
77.84	353.0	362.9
77.85	379.0	362.9
77.86	377.0	362.8
77.87	389.0	362.8
77.88	376.0	362.8
77.89	374.0	362.8
77.9	373.0	362.7
77.91	378.0	362.7
77.92	384.0	362.7
77.93	392.0	362.6
77.94	391.0	362.6
77.95	373.0	362.6
77.96	386.0	362.6
77.97	388.0	362.5
77.98	382.0	362.5
77.99	398.0	362.5
78.0	377.0	362.4
78.01	378.0	362.4
78.02	387.0	362.4
78.03	400.0	362.4
78.04	380.0	362.3
78.05	377.0	362.3
78.06	374.0	362.3
78.07	379.0	362.3
78.08	374.0	362.2
78.09	395.0	362.2
78.1	408.0	362.2
78.11	384.0	362.2
78.12	389.0	362.1
78.13	398.0	362.1
78.14	380.0	362.1
78.15	390.0	362.0
78.16	388.0	362.0
78.17	420.0	362.0
78.18	411.0	362.0
78.19	408.0	361.9
78.2	385.0	361.9
78.21	386.0	361.9
78.22	382.0	361.9
78.23	372.0	361.8
78.24	382.0	361.8
78.25	396.0	361.8
78.26	390.0	361.8
78.27	374.0	361.7
78.28	380.0	361.7
78.29	388.0	361.7
78.3	384.0	361.7
78.31	388.0	361.6
78.32	385.0	361.6
78.33	388.0	361.6
78.34	379.0	361.5
78.35	376.0	361.5
78.36	405.0	361.5
78.37	408.0	361.5
78.38	433.0	361.4
78.39	403.0	361.4
78.4	395.0	361.4
78.41	382.0	361.4
78.42	382.0	361.3
78.43	384.0	361.3
78.44	417.0	361.3
78.45	404.0	361.3
78.46	402.0	361.2
78.47	409.0	361.2
78.48	421.0	361.2
78.49	397.0	361.2
78.5	380.0	361.1
78.51	386.0	361.1
78.52	401.0	361.1
78.53	402.0	361.1
78.54	392.0	361.0
78.55	396.0	361.0
78.56	389.0	361.0
78.57	393.0	361.0
78.58	400.0	360.9
78.59	383.0	360.9
78.6	385.0	360.9
78.61	411.0	360.9
78.62	404.0	360.8
78.63	416.0	360.8
78.64	423.0	360.8
78.65	413.0	360.8
78.66	404.0	360.7
78.67	421.0	360.7
78.68	405.0	360.7
78.69	401.0	360.6
78.7	396.0	360.6
78.71	401.0	360.6
78.72	422.0	360.6
78.73	401.0	360.5
78.74	390.0	360.5
78.75	408.0	360.5
78.76	423.0	360.5
78.77	408.0	360.4
78.78	380.0	360.4
78.79	375.0	360.4
78.8	412.0	360.4
78.81	425.0	360.3
78.82	430.0	360.3
78.83	418.0	360.3
78.84	414.0	360.3
78.85	406.0	360.2
78.86	398.0	360.2
78.87	383.0	360.2
78.88	413.0	360.2
78.89	421.0	360.1
78.9	423.0	360.1
78.91	423.0	360.1
78.92	403.0	360.1
78.93	410.0	360.0
78.94	425.0	360.0
78.95	413.0	360.0
78.96	427.0	359.9
78.97	423.0	359.9
78.98	429.0	359.9
78.99	414.0	359.9
79.0	422.0	359.8
79.01	414.0	359.8
79.02	429.0	359.8
79.03	417.0	359.8
79.04	428.0	359.7
79.05	432.0	359.7
79.06	424.0	359.7
79.07	430.0	359.7
79.08	453.0	359.6
79.09	458.0	359.6
79.1	453.0	359.6
79.11	427.0	359.5
79.12	406.0	359.5
79.13	431.0	359.5
79.14	430.0	359.5
79.15	417.0	359.4
79.16	406.0	359.4
79.17	421.0	359.4
79.18	423.0	359.4
79.19	419.0	359.3
79.2	450.0	359.3
79.21	433.0	359.3
79.22	432.0	359.2
79.23	451.0	359.2
79.24	446.0	359.2
79.25	440.0	359.2
79.26	426.0	359.1
79.27	427.0	359.1
79.28	426.0	359.1
79.29	468.0	359.1
79.3	469.0	359.0
79.31	453.0	359.0
79.32	453.0	359.0
79.33	443.0	358.9
79.34	427.0	358.9
79.35	456.0	358.9
79.36	477.0	358.9
79.37	484.0	358.8
79.38	469.0	358.8
79.39	470.0	358.8
79.4	467.0	358.7
79.41	459.0	358.7
79.42	443.0	358.7
79.43	483.0	358.7
79.44	491.0	358.6
79.45	469.0	358.6
79.46	489.0	358.6
79.47	495.0	358.5
79.48	448.0	358.5
79.49	468.0	358.5
79.5	491.0	358.5
79.51	502.0	358.4
79.52	500.0	358.4
79.53	507.0	358.4
79.54	517.0	358.3
79.55	521.0	358.3
79.56	513.0	358.3
79.57	510.0	358.2
79.58	511.0	358.2
79.59	493.0	358.2
79.6	524.0	358.2
79.61	519.0	358.1
79.62	488.0	358.1
79.63	540.0	358.1
79.64	532.0	358.0
79.65	541.0	358.0
79.66	537.0	358.0
79.67	527.0	357.9
79.68	530.0	357.9
79.69	506.0	357.9
79.7	529.0	357.9
79.71	537.0	357.8
79.72	558.0	357.8
79.73	547.0	357.8
79.74	556.0	357.7
79.75	586.0	357.7
79.76	603.0	357.7
79.77	581.0	357.6
79.78	560.0	357.6
79.79	575.0	357.6
79.8	601.0	357.5
79.81	624.0	357.5
79.82	593.0	357.5
79.83	584.0	357.4
79.84	617.0	357.4
79.85	618.0	357.4
79.86	632.0	357.3
79.87	616.0	357.3
79.88	613.0	357.3
79.89	599.0	357.2
79.9	598.0	357.2
79.91	600.0	357.2
79.92	622.0	357.1
79.93	659.0	357.1
79.94	653.0	357.1
79.95	685.0	357.0
79.96	715.0	357.0
79.97	692.0	357.0
79.98	667.0	356.9
79.99	699.0	356.9
80.0	712.0	356.9
80.01	687.0	356.8
80.02	670.0	356.8
80.03	705.0	356.8
80.04	710.0	356.7
80.05	697.0	356.7
80.06	701.0	356.7
80.07	703.0	356.6
80.08	705.0	356.6
80.09	736.0	356.6
80.1	734.0	356.5
80.11	752.0	356.5
80.12	728.0	356.4
80.13	717.0	356.4
80.14	748.0	356.4
80.15	737.0	356.3
80.16	745.0	356.3
80.17	776.0	356.3
80.18	780.0	356.2
80.19	762.0	356.2
80.2	746.0	356.2
80.21	758.0	356.1
80.22	794.0	356.1
80.23	784.0	356.0
80.24	747.0	356.0
80.25	756.0	356.0
80.26	744.0	355.9
80.27	745.0	355.9
80.28	722.0	355.9
80.29	705.0	355.8
80.3	716.0	355.8
80.31	751.0	355.7
80.32	720.0	355.7
80.33	723.0	355.7
80.34	737.0	355.6
80.35	735.0	355.6
80.36	704.0	355.5
80.37	709.0	355.5
80.38	723.0	355.5
80.39	726.0	355.4
80.4	725.0	355.4
80.41	712.0	355.3
80.42	685.0	355.3
80.43	684.0	355.3
80.44	683.0	355.2
80.45	682.0	355.2
80.46	666.0	355.1
80.47	680.0	355.1
80.48	660.0	355.1
80.49	681.0	355.0
80.5	670.0	355.0
80.51	641.0	354.9
80.52	621.0	354.9
80.53	638.0	354.9
80.54	615.0	354.8
80.55	617.0	354.8
80.56	630.0	354.7
80.57	596.0	354.7
80.58	576.0	354.6
80.59	607.0	354.6
80.6	615.0	354.6
80.61	598.0	354.5
80.62	581.0	354.5
80.63	593.0	354.4
80.64	588.0	354.4
80.65	574.0	354.3
80.66	564.0	354.3
80.67	563.0	354.2
80.68	545.0	354.2
80.69	568.0	354.2
80.7	550.0	354.1
80.71	576.0	354.1
80.72	556.0	354.0
80.73	519.0	354.0
80.74	524.0	353.9
80.75	516.0	353.9
80.76	520.0	353.8
80.77	511.0	353.8
80.78	502.0	353.7
80.79	505.0	353.7
80.8	507.0	353.6
80.81	497.0	353.6
80.82	487.0	353.6
80.83	484.0	353.5
80.84	489.0	353.5
80.85	480.0	353.4
80.86	466.0	353.4
80.87	466.0	353.3
80.88	468.0	353.3
80.89	471.0	353.2
80.9	477.0	353.2
80.91	460.0	353.1
80.92	473.0	353.1
80.93	467.0	353.0
80.94	455.0	353.0
80.95	474.0	352.9
80.96	480.0	352.9
80.97	467.0	352.8
80.98	446.0	352.8
80.99	441.0	352.7
81.0	457.0	352.7
81.01	461.0	352.6
81.02	454.0	352.6
81.03	431.0	352.5
81.04	432.0	352.5
81.05	440.0	352.4
81.06	421.0	352.4
81.07	422.0	352.3
81.08	426.0	352.2
81.09	447.0	352.2
81.1	467.0	352.1
81.11	448.0	352.1
81.12	420.0	352.0
81.13	412.0	352.0
81.14	420.0	351.9
81.15	420.0	351.9
81.16	413.0	351.8
81.17	400.0	351.8
81.18	422.0	351.7
81.19	430.0	351.7
81.2	424.0	351.6
81.21	423.0	351.5
81.22	430.0	351.5
81.23	437.0	351.4
81.24	421.0	351.4
81.25	423.0	351.3
81.26	422.0	351.3
81.27	404.0	351.2
81.28	397.0	351.1
81.29	398.0	351.1
81.3	424.0	351.0
81.31	406.0	351.0
81.32	389.0	350.9
81.33	441.0	350.9
81.34	402.0	350.8
81.35	378.0	350.7
81.36	397.0	350.7
81.37	392.0	350.6
81.38	419.0	350.6
81.39	392.0	350.5
81.4	393.0	350.4
81.41	416.0	350.4
81.42	407.0	350.3
81.43	404.0	350.3
81.44	423.0	350.2
81.45	405.0	350.1
81.46	379.0	350.1
81.47	381.0	350.0
81.48	414.0	349.9
81.49	417.0	349.9
81.5	407.0	349.8
81.51	383.0	349.8
81.52	390.0	349.7
81.53	386.0	349.6
81.54	381.0	349.6
81.55	385.0	349.5
81.56	389.0	349.4
81.57	371.0	349.4
81.58	384.0	349.3
81.59	382.0	349.2
81.6	390.0	349.2
81.61	409.0	349.1
81.62	411.0	349.1
81.63	404.0	349.0
81.64	403.0	348.9
81.65	400.0	348.9
81.66	396.0	348.8
81.67	403.0	348.7
81.68	386.0	348.7
81.69	378.0	348.6
81.7	381.0	348.5
81.71	386.0	348.4
81.72	378.0	348.4
81.73	394.0	348.3
81.74	417.0	348.2
81.75	393.0	348.2
81.76	373.0	348.1
81.77	389.0	348.0
81.78	390.0	348.0
81.79	378.0	347.9
81.8	390.0	347.8
81.81	388.0	347.8
81.82	382.0	347.7
81.83	370.0	347.6
81.84	385.0	347.5
81.85	388.0	347.5
81.86	373.0	347.4
81.87	361.0	347.3
81.88	384.0	347.2
81.89	375.0	347.2
81.9	355.0	347.1
81.91	349.0	347.0
81.92	354.0	347.0
81.93	366.0	346.9
81.94	395.0	346.8
81.95	381.0	346.7
81.96	357.0	346.7
81.97	369.0	346.6
81.98	367.0	346.5
81.99	350.0	346.4
82.0	369.0	346.3
82.01	382.0	346.3
82.02	362.0	346.2
82.03	386.0	346.1
82.04	379.0	346.0
82.05	364.0	346.0
82.06	374.0	345.9
82.07	387.0	345.8
82.08	381.0	345.7
82.09	368.0	345.6
82.1	365.0	345.6
82.11	355.0	345.5
82.12	360.0	345.4
82.13	359.0	345.3
82.14	379.0	345.3
82.15	376.0	345.2
82.16	372.0	345.1
82.17	375.0	345.0
82.18	360.0	344.9
82.19	362.0	344.8
82.2	370.0	344.8
82.21	397.0	344.7
82.22	384.0	344.6
82.23	378.0	344.5
82.24	392.0	344.4
82.25	379.0	344.4
82.26	341.0	344.3
82.27	373.0	344.2
82.28	386.0	344.1
82.29	376.0	344.0
82.3	391.0	343.9
82.31	384.0	343.8
82.32	372.0	343.8
82.33	381.0	343.7
82.34	390.0	343.6
82.35	374.0	343.5
82.36	364.0	343.4
82.37	362.0	343.3
82.38	376.0	343.3
82.39	372.0	343.2
82.4	383.0	343.1
82.41	372.0	343.0
82.42	371.0	342.9
82.43	372.0	342.8
82.44	387.0	342.7
82.45	377.0	342.6
82.46	407.0	342.6
82.47	403.0	342.5
82.48	381.0	342.4
82.49	394.0	342.3
82.5	382.0	342.2
82.51	375.0	342.1
82.52	391.0	342.0
82.53	397.0	341.9
82.54	361.0	341.8
82.55	371.0	341.8
82.56	378.0	341.7
82.57	384.0	341.6
82.58	389.0	341.5
82.59	391.0	341.4
82.6	388.0	341.3
82.61	389.0	341.2
82.62	369.0	341.1
82.63	376.0	341.0
82.64	381.0	340.9
82.65	365.0	340.8
82.66	397.0	340.8
82.67	403.0	340.7
82.68	399.0	340.6
82.69	414.0	340.5
82.7	416.0	340.4
82.71	411.0	340.3
82.72	419.0	340.2
82.73	407.0	340.1
82.74	375.0	340.0
82.75	384.0	339.9
82.76	416.0	339.8
82.77	419.0	339.7
82.78	396.0	339.6
82.79	392.0	339.5
82.8	390.0	339.4
82.81	370.0	339.4
82.82	401.0	339.3
82.83	401.0	339.2
82.84	412.0	339.1
82.85	411.0	339.0
82.86	402.0	338.9
82.87	397.0	338.8
82.88	399.0	338.7
82.89	385.0	338.6
82.9	389.0	338.5
82.91	416.0	338.4
82.92	404.0	338.3
82.93	386.0	338.2
82.94	405.0	338.1
82.95	420.0	338.0
82.96	407.0	337.9
82.97	395.0	337.8
82.98	373.0	337.7
82.99	370.0	337.6
83.0	409.0	337.5
83.01	422.0	337.4
83.02	409.0	337.3
83.03	379.0	337.2
83.04	394.0	337.1
83.05	387.0	337.0
83.06	405.0	336.9
83.07	393.0	336.8
83.08	399.0	336.7
83.09	408.0	336.6
83.1	406.0	336.5
83.11	379.0	336.4
83.12	349.0	336.3
83.13	377.0	336.2
83.14	402.0	336.1
83.15	396.0	336.0
83.16	386.0	335.9
83.17	379.0	335.8
83.18	366.0	335.7
83.19	384.0	335.6
83.2	407.0	335.5
83.21	384.0	335.4
83.22	361.0	335.3
83.23	344.0	335.2
83.24	392.0	335.1
83.25	396.0	335.0
83.26	390.0	334.9
83.27	371.0	334.8
83.28	382.0	334.7
83.29	378.0	334.6
83.3	380.0	334.5
83.31	401.0	334.4
83.32	414.0	334.3
83.33	395.0	334.2
83.34	378.0	334.1
83.35	379.0	334.0
83.36	393.0	333.9
83.37	395.0	333.8
83.38	388.0	333.7
83.39	374.0	333.6
83.4	364.0	333.5
83.41	351.0	333.4
83.42	374.0	333.3
83.43	398.0	333.2
83.44	372.0	333.1
83.45	375.0	333.0
83.46	376.0	332.9
83.47	379.0	332.8
83.48	364.0	332.7
83.49	346.0	332.6
83.5	353.0	332.5
83.51	387.0	332.4
83.52	407.0	332.3
83.53	393.0	332.2
83.54	382.0	332.1
83.55	371.0	332.0
83.56	377.0	331.8
83.57	377.0	331.7
83.58	366.0	331.6
83.59	361.0	331.5
83.6	369.0	331.4
83.61	352.0	331.3
83.62	356.0	331.2
83.63	351.0	331.1
83.64	368.0	331.0
83.65	374.0	330.9
83.66	383.0	330.8
83.67	392.0	330.7
83.68	380.0	330.6
83.69	355.0	330.5
83.7	355.0	330.4
83.71	359.0	330.3
83.72	356.0	330.2
83.73	350.0	330.1
83.74	356.0	330.0
83.75	362.0	329.9
83.76	370.0	329.8
83.77	358.0	329.6
83.78	358.0	329.5
83.79	354.0	329.4
83.8	349.0	329.3
83.81	335.0	329.2
83.82	344.0	329.1
83.83	355.0	329.0
83.84	346.0	328.9
83.85	327.0	328.8
83.86	325.0	328.7
83.87	369.0	328.6
83.88	350.0	328.5
83.89	341.0	328.4
83.9	327.0	328.3
83.91	342.0	328.2
83.92	351.0	328.1
83.93	363.0	328.0
83.94	352.0	327.9
83.95	338.0	327.7
83.96	340.0	327.6
83.97	354.0	327.5
83.98	365.0	327.4
83.99	362.0	327.3
84.0	344.0	327.2
84.01	335.0	327.1
84.02	351.0	327.0
84.03	361.0	326.9
84.04	359.0	326.8
84.05	346.0	326.7
84.06	341.0	326.6
84.07	344.0	326.5
84.08	327.0	326.4
84.09	335.0	326.3
84.1	336.0	326.2
84.11	329.0	326.0
84.12	352.0	325.9
84.13	359.0	325.8
84.14	334.0	325.7
84.15	317.0	325.6
84.16	322.0	325.5
84.17	336.0	325.4
84.18	339.0	325.3
84.19	358.0	325.2
84.2	357.0	325.1
84.21	335.0	325.0
84.22	336.0	324.9
84.23	337.0	324.8
84.24	324.0	324.7
84.25	326.0	324.6
84.26	360.0	324.5
84.27	348.0	324.3
84.28	320.0	324.2
84.29	337.0	324.1
84.3	325.0	324.0
84.31	351.0	323.9
84.32	361.0	323.8
84.33	332.0	323.7
84.34	332.0	323.6
84.35	329.0	323.5
84.36	326.0	323.4
84.37	325.0	323.3
84.38	342.0	323.2
84.39	355.0	323.1
84.4	323.0	323.0
84.41	324.0	322.9
84.42	351.0	322.8
84.43	332.0	322.7
84.44	325.0	322.5
84.45	345.0	322.4
84.46	347.0	322.3
84.47	343.0	322.2
84.48	340.0	322.1
84.49	345.0	322.0
84.5	331.0	321.9
84.51	334.0	321.8
84.52	333.0	321.7
84.53	318.0	321.6
84.54	331.0	321.5
84.55	323.0	321.4
84.56	321.0	321.3
84.57	337.0	321.2
84.58	335.0	321.1
84.59	342.0	321.0
84.6	328.0	320.9
84.61	341.0	320.8
84.62	337.0	320.7
84.63	328.0	320.6
84.64	336.0	320.4
84.65	330.0	320.3
84.66	319.0	320.2
84.67	322.0	320.1
84.68	339.0	320.0
84.69	336.0	319.9
84.7	341.0	319.8
84.71	331.0	319.7
84.72	346.0	319.6
84.73	337.0	319.5
84.74	329.0	319.4
84.75	323.0	319.3
84.76	315.0	319.2
84.77	336.0	319.1
84.78	313.0	319.0
84.79	316.0	318.9
84.8	340.0	318.8
84.81	337.0	318.7
84.82	324.0	318.6
84.83	324.0	318.5
84.84	331.0	318.4
84.85	340.0	318.3
84.86	351.0	318.2
84.87	334.0	318.1
84.88	337.0	318.0
84.89	347.0	317.9
84.9	339.0	317.8
84.91	326.0	317.7
84.92	335.0	317.6
84.93	340.0	317.4
84.94	329.0	317.3
84.95	320.0	317.2
84.96	329.0	317.1
84.97	322.0	317.0
84.98	339.0	316.9
84.99	356.0	316.8
85.0	349.0	316.7
85.01	326.0	316.6
85.02	312.0	316.5
85.03	316.0	316.4
85.04	330.0	316.3
85.05	338.0	316.2
85.06	335.0	316.1
85.07	328.0	316.0
85.08	328.0	315.9
85.09	319.0	315.8
85.1	344.0	315.7
85.11	346.0	315.6
85.12	333.0	315.5
85.13	322.0	315.4
85.14	329.0	315.3
85.15	344.0	315.2
85.16	333.0	315.1
85.17	333.0	315.0
85.18	329.0	314.9
85.19	316.0	314.8
85.2	301.0	314.7
85.21	302.0	314.6
85.22	322.0	314.5
85.23	310.0	314.4
85.24	307.0	314.3
85.25	324.0	314.2
85.26	325.0	314.1
85.27	315.0	314.0
85.28	321.0	314.0
85.29	330.0	313.9
85.3	327.0	313.8
85.31	342.0	313.7
85.32	329.0	313.6
85.33	335.0	313.5
85.34	329.0	313.4
85.35	326.0	313.3
85.36	329.0	313.2
85.37	319.0	313.1
85.38	295.0	313.0
85.39	311.0	312.9
85.4	314.0	312.8
85.41	303.0	312.7
85.42	315.0	312.6
85.43	318.0	312.5
85.44	330.0	312.4
85.45	337.0	312.3
85.46	319.0	312.2
85.47	327.0	312.1
85.48	332.0	312.0
85.49	333.0	311.9
85.5	329.0	311.8
85.51	312.0	311.8
85.52	320.0	311.7
85.53	337.0	311.6
85.54	309.0	311.5
85.55	316.0	311.4
85.56	314.0	311.3
85.57	326.0	311.2
85.58	321.0	311.1
85.59	323.0	311.0
85.6	341.0	310.9
85.61	319.0	310.8
85.62	310.0	310.7
85.63	338.0	310.6
85.64	324.0	310.5
85.65	316.0	310.5
85.66	318.0	310.4
85.67	314.0	310.3
85.68	321.0	310.2
85.69	328.0	310.1
85.7	309.0	310.0
85.71	305.0	309.9
85.72	304.0	309.8
85.73	317.0	309.7
85.74	331.0	309.6
85.75	346.0	309.6
85.76	333.0	309.5
85.77	339.0	309.4
85.78	347.0	309.3
85.79	343.0	309.2
85.8	333.0	309.1
85.81	325.0	309.0
85.82	317.0	308.9
85.83	326.0	308.8
85.84	331.0	308.8
85.85	328.0	308.7
85.86	329.0	308.6
85.87	332.0	308.5
85.88	327.0	308.4
85.89	328.0	308.3
85.9	335.0	308.2
85.91	306.0	308.2
85.92	307.0	308.1
85.93	325.0	308.0
85.94	340.0	307.9
85.95	321.0	307.8
85.96	333.0	307.7
85.97	325.0	307.6
85.98	306.0	307.6
85.99	311.0	307.5
86.0	329.0	307.4
86.01	323.0	307.3
86.02	295.0	307.2
86.03	306.0	307.1
86.04	336.0	307.1
86.05	339.0	307.0
86.06	338.0	306.9
86.07	325.0	306.8
86.08	329.0	306.7
86.09	314.0	306.7
86.1	302.0	306.6
86.11	322.0	306.5
86.12	336.0	306.4
86.13	328.0	306.3
86.14	308.0	306.3
86.15	296.0	306.2
86.16	306.0	306.1
86.17	324.0	306.0
86.18	308.0	305.9
86.19	299.0	305.9
86.2	315.0	305.8
86.21	305.0	305.7
86.22	318.0	305.6
86.23	319.0	305.5
86.24	334.0	305.5
86.25	331.0	305.4
86.26	313.0	305.3
86.27	297.0	305.2
86.28	313.0	305.2
86.29	326.0	305.1
86.3	317.0	305.0
86.31	307.0	304.9
86.32	321.0	304.9
86.33	299.0	304.8
86.34	282.0	304.7
86.35	310.0	304.6
86.36	325.0	304.6
86.37	324.0	304.5
86.38	312.0	304.4
86.39	316.0	304.3
86.4	324.0	304.3
86.41	318.0	304.2
86.42	310.0	304.1
86.43	318.0	304.1
86.44	335.0	304.0
86.45	320.0	303.9
86.46	311.0	303.8
86.47	305.0	303.8
86.48	318.0	303.7
86.49	322.0	303.6
86.5	335.0	303.6
86.51	324.0	303.5
86.52	323.0	303.4
86.53	335.0	303.4
86.54	342.0	303.3
86.55	329.0	303.2
86.56	315.0	303.2
86.57	325.0	303.1
86.58	337.0	303.0
86.59	320.0	303.0
86.6	305.0	302.9
86.61	332.0	302.8
86.62	318.0	302.8
86.63	298.0	302.7
86.64	311.0	302.6
86.65	332.0	302.6
86.66	320.0	302.5
86.67	330.0	302.4
86.68	336.0	302.4
86.69	320.0	302.3
86.7	302.0	302.2
86.71	296.0	302.2
86.72	308.0	302.1
86.73	320.0	302.0
86.74	319.0	302.0
86.75	316.0	301.9
86.76	325.0	301.9
86.77	328.0	301.8
86.78	311.0	301.7
86.79	311.0	301.7
86.8	314.0	301.6
86.81	311.0	301.6
86.82	311.0	301.5
86.83	318.0	301.4
86.84	314.0	301.4
86.85	308.0	301.3
86.86	323.0	301.3
86.87	329.0	301.2
86.88	334.0	301.2
86.89	320.0	301.1
86.9	297.0	301.0
86.91	303.0	301.0
86.92	314.0	300.9
86.93	305.0	300.9
86.94	311.0	300.8
86.95	323.0	300.8
86.96	312.0	300.7
86.97	302.0	300.7
86.98	315.0	300.6
86.99	344.0	300.6
87.0	334.0	300.5
87.01	304.0	300.5
87.02	277.0	300.4
87.03	299.0	300.3
87.04	317.0	300.3
87.05	315.0	300.2
87.06	306.0	300.2
87.07	308.0	300.1
87.08	314.0	300.1
87.09	320.0	300.0
87.1	318.0	300.0
87.11	310.0	299.9
87.12	312.0	299.9
87.13	315.0	299.9
87.14	312.0	299.8
87.15	312.0	299.8
87.16	313.0	299.7
87.17	306.0	299.7
87.18	302.0	299.6
87.19	300.0	299.6
87.2	300.0	299.5
87.21	292.0	299.5
87.22	283.0	299.4
87.23	293.0	299.4
87.24	323.0	299.4
87.25	311.0	299.3
87.26	305.0	299.3
87.27	295.0	299.2
87.28	303.0	299.2
87.29	324.0	299.1
87.3	304.0	299.1
87.31	306.0	299.1
87.32	318.0	299.0
87.33	313.0	299.0
87.34	299.0	298.9
87.35	296.0	298.9
87.36	324.0	298.9
87.37	323.0	298.8
87.38	304.0	298.8
87.39	313.0	298.7
87.4	315.0	298.7
87.41	299.0	298.7
87.42	299.0	298.6
87.43	318.0	298.6
87.44	325.0	298.6
87.45	312.0	298.5
87.46	320.0	298.5
87.47	314.0	298.4
87.48	314.0	298.4
87.49	330.0	298.4
87.5	330.0	298.3
87.51	310.0	298.3
87.52	319.0	298.3
87.53	305.0	298.2
87.54	301.0	298.2
87.55	305.0	298.2
87.56	309.0	298.1
87.57	313.0	298.1
87.58	308.0	298.1
87.59	310.0	298.0
87.6	313.0	298.0
87.61	315.0	298.0
87.62	322.0	298.0
87.63	314.0	297.9
87.64	309.0	297.9
87.65	312.0	297.9
87.66	300.0	297.8
87.67	285.0	297.8
87.68	289.0	297.8
87.69	311.0	297.7
87.7	331.0	297.7
87.71	320.0	297.7
87.72	317.0	297.7
87.73	304.0	297.6
87.74	301.0	297.6
87.75	305.0	297.6
87.76	307.0	297.6
87.77	321.0	297.5
87.78	322.0	297.5
87.79	324.0	297.5
87.8	332.0	297.5
87.81	321.0	297.4
87.82	303.0	297.4
87.83	304.0	297.4
87.84	319.0	297.4
87.85	316.0	297.3
87.86	314.0	297.3
87.87	328.0	297.3
87.88	330.0	297.3
87.89	330.0	297.2
87.9	321.0	297.2
87.91	307.0	297.2
87.92	309.0	297.2
87.93	316.0	297.2
87.94	331.0	297.1
87.95	330.0	297.1
87.96	327.0	297.1
87.97	319.0	297.1
87.98	312.0	297.1
87.99	305.0	297.0
88.0	294.0	297.0
88.01	289.0	297.0
88.02	312.0	297.0
88.03	326.0	297.0
88.04	307.0	297.0
88.05	299.0	296.9
88.06	303.0	296.9
88.07	310.0	296.9
88.08	329.0	296.9
88.09	336.0	296.9
88.1	327.0	296.9
88.11	318.0	296.8
88.12	305.0	296.8
88.13	292.0	296.8
88.14	288.0	296.8
88.15	295.0	296.8
88.16	314.0	296.8
88.17	309.0	296.8
88.18	297.0	296.7
88.19	294.0	296.7
88.2	312.0	296.7
88.21	308.0	296.7
88.22	303.0	296.7
88.23	313.0	296.7
88.24	313.0	296.7
88.25	318.0	296.7
88.26	323.0	296.6
88.27	317.0	296.6
88.28	310.0	296.6
88.29	314.0	296.6
88.3	337.0	296.6
88.31	330.0	296.6
88.32	304.0	296.6
88.33	297.0	296.6
88.34	300.0	296.6
88.35	287.0	296.6
88.36	293.0	296.5
88.37	306.0	296.5
88.38	305.0	296.5
88.39	304.0	296.5
88.4	328.0	296.5
88.41	347.0	296.5
88.42	329.0	296.5
88.43	316.0	296.5
88.44	327.0	296.5
88.45	344.0	296.5
88.46	332.0	296.5
88.47	322.0	296.5
88.48	324.0	296.5
88.49	332.0	296.5
88.5	345.0	296.5
88.51	330.0	296.5
88.52	310.0	296.4
88.53	314.0	296.4
88.54	296.0	296.4
88.55	298.0	296.4
88.56	309.0	296.4
88.57	307.0	296.4
88.58	312.0	296.4
88.59	319.0	296.4
88.6	313.0	296.4
88.61	318.0	296.4
88.62	327.0	296.4
88.63	324.0	296.4
88.64	321.0	296.4
88.65	317.0	296.4
88.66	316.0	296.4
88.67	310.0	296.4
88.68	304.0	296.4
88.69	312.0	296.4
88.7	308.0	296.4
88.71	316.0	296.4
88.72	313.0	296.4
88.73	311.0	296.4
88.74	324.0	296.4
88.75	325.0	296.4
88.76	301.0	296.4
88.77	305.0	296.4
88.78	310.0	296.4
88.79	300.0	296.4
88.8	293.0	296.4
88.81	308.0	296.4
88.82	315.0	296.4
88.83	310.0	296.4
88.84	319.0	296.4
88.85	327.0	296.4
88.86	334.0	296.4
88.87	340.0	296.5
88.88	321.0	296.5
88.89	306.0	296.5
88.9	322.0	296.5
88.91	315.0	296.5
88.92	315.0	296.5
88.93	318.0	296.5
88.94	326.0	296.5
88.95	318.0	296.5
88.96	313.0	296.5
88.97	316.0	296.5
88.98	328.0	296.5
88.99	325.0	296.5
89.0	327.0	296.5
89.01	316.0	296.5
89.02	306.0	296.5
89.03	317.0	296.5
89.04	315.0	296.6
89.05	315.0	296.6
89.06	331.0	296.6
89.07	331.0	296.6
89.08	326.0	296.6
89.09	319.0	296.6
89.1	321.0	296.6
89.11	318.0	296.6
89.12	321.0	296.6
89.13	332.0	296.6
89.14	323.0	296.6
89.15	310.0	296.7
89.16	310.0	296.7
89.17	315.0	296.7
89.18	316.0	296.7
89.19	322.0	296.7
89.2	337.0	296.7
89.21	324.0	296.7
89.22	325.0	296.7
89.23	337.0	296.7
89.24	333.0	296.8
89.25	323.0	296.8
89.26	317.0	296.8
89.27	310.0	296.8
89.28	305.0	296.8
89.29	305.0	296.8
89.3	327.0	296.8
89.31	342.0	296.8
89.32	338.0	296.9
89.33	328.0	296.9
89.34	331.0	296.9
89.35	322.0	296.9
89.36	325.0	296.9
89.37	329.0	296.9
89.38	315.0	296.9
89.39	323.0	297.0
89.4	317.0	297.0
89.41	314.0	297.0
89.42	321.0	297.0
89.43	315.0	297.0
89.44	313.0	297.0
89.45	327.0	297.1
89.46	330.0	297.1
89.47	320.0	297.1
89.48	328.0	297.1
89.49	337.0	297.1
89.5	322.0	297.1
89.51	314.0	297.1
89.52	317.0	297.2
89.53	308.0	297.2
89.54	308.0	297.2
89.55	323.0	297.2
89.56	332.0	297.2
89.57	322.0	297.3
89.58	314.0	297.3
89.59	323.0	297.3
89.6	325.0	297.3
89.61	319.0	297.3
89.62	316.0	297.3
89.63	337.0	297.4
89.64	358.0	297.4
89.65	342.0	297.4
89.66	318.0	297.4
89.67	309.0	297.4
89.68	324.0	297.5
89.69	337.0	297.5
89.7	326.0	297.5
89.71	328.0	297.5
89.72	345.0	297.5
89.73	341.0	297.6
89.74	332.0	297.6
89.75	330.0	297.6
89.76	328.0	297.6
89.77	332.0	297.6
89.78	325.0	297.7
89.79	308.0	297.7
89.8	319.0	297.7
89.81	336.0	297.7
89.82	337.0	297.8
89.83	337.0	297.8
89.84	323.0	297.8
89.85	322.0	297.8
89.86	323.0	297.8
89.87	317.0	297.9
89.88	327.0	297.9
89.89	335.0	297.9
89.9	331.0	297.9
89.91	329.0	298.0
89.92	325.0	298.0
89.93	324.0	298.0
89.94	328.0	298.0
89.95	336.0	298.1
89.96	338.0	298.1
89.97	335.0	298.1
89.98	345.0	298.1
89.99	350.0	298.2
90.0	344.0	298.2
90.01	350.0	298.2
90.02	341.0	298.2
90.03	339.0	298.3
90.04	345.0	298.3
90.05	343.0	298.3
90.06	337.0	298.3
90.07	324.0	298.4
90.08	319.0	298.4
90.09	315.0	298.4
90.1	317.0	298.4
90.11	328.0	298.5
90.12	332.0	298.5
90.13	335.0	298.5
90.14	329.0	298.5
90.15	324.0	298.6
90.16	328.0	298.6
90.17	317.0	298.6
90.18	313.0	298.6
90.19	312.0	298.7
90.2	307.0	298.7
90.21	317.0	298.7
90.22	341.0	298.7
90.23	343.0	298.8
90.24	322.0	298.8
90.25	327.0	298.8
90.26	338.0	298.9
90.27	325.0	298.9
90.28	321.0	298.9
90.29	322.0	298.9
90.3	329.0	299.0
90.31	331.0	299.0
90.32	328.0	299.0
90.33	330.0	299.1
90.34	330.0	299.1
90.35	333.0	299.1
90.36	334.0	299.1
90.37	331.0	299.2
90.38	342.0	299.2
90.39	355.0	299.2
90.4	335.0	299.3
90.41	331.0	299.3
90.42	348.0	299.3
90.43	340.0	299.3
90.44	334.0	299.4
90.45	334.0	299.4
90.46	338.0	299.4
90.47	338.0	299.5
90.48	321.0	299.5
90.49	325.0	299.5
90.5	338.0	299.6
90.51	336.0	299.6
90.52	339.0	299.6
90.53	337.0	299.6
90.54	328.0	299.7
90.55	321.0	299.7
90.56	331.0	299.7
90.57	346.0	299.8
90.58	329.0	299.8
90.59	308.0	299.8
90.6	325.0	299.9
90.61	343.0	299.9
90.62	340.0	299.9
90.63	334.0	300.0
90.64	335.0	300.0
90.65	323.0	300.0
90.66	324.0	300.1
90.67	327.0	300.1
90.68	324.0	300.1
90.69	334.0	300.1
90.7	331.0	300.2
90.71	317.0	300.2
90.72	313.0	300.2
90.73	320.0	300.3
90.74	339.0	300.3
90.75	343.0	300.3
90.76	325.0	300.4
90.77	320.0	300.4
90.78	333.0	300.4
90.79	348.0	300.5
90.8	353.0	300.5
90.81	350.0	300.5
90.82	339.0	300.6
90.83	343.0	300.6
90.84	351.0	300.6
90.85	346.0	300.7
90.86	341.0	300.7
90.87	334.0	300.7
90.88	334.0	300.8
90.89	335.0	300.8
90.9	342.0	300.8
90.91	341.0	300.9
90.92	339.0	300.9
90.93	351.0	300.9
90.94	362.0	301.0
90.95	358.0	301.0
90.96	362.0	301.0
90.97	364.0	301.1
90.98	336.0	301.1
90.99	320.0	301.1
91.0	326.0	301.2
91.01	333.0	301.2
91.02	336.0	301.2
91.03	326.0	301.3
91.04	327.0	301.3
91.05	340.0	301.3
91.06	349.0	301.4
91.07	359.0	301.4
91.08	347.0	301.4
91.09	340.0	301.5
91.1	339.0	301.5
91.11	341.0	301.5
91.12	358.0	301.6
91.13	360.0	301.6
91.14	351.0	301.6
91.15	345.0	301.7
91.16	330.0	301.7
91.17	339.0	301.7
91.18	363.0	301.8
91.19	353.0	301.8
91.2	345.0	301.9
91.21	358.0	301.9
91.22	359.0	301.9
91.23	340.0	302.0
91.24	330.0	302.0
91.25	338.0	302.0
91.26	348.0	302.1
91.27	346.0	302.1
91.28	332.0	302.1
91.29	338.0	302.2
91.3	348.0	302.2
91.31	340.0	302.2
91.32	334.0	302.3
91.33	336.0	302.3
91.34	340.0	302.3
91.35	341.0	302.4
91.36	346.0	302.4
91.37	346.0	302.4
91.38	350.0	302.5
91.39	357.0	302.5
91.4	346.0	302.5
91.41	341.0	302.6
91.42	352.0	302.6
91.43	343.0	302.7
91.44	328.0	302.7
91.45	335.0	302.7
91.46	344.0	302.8
91.47	347.0	302.8
91.48	338.0	302.8
91.49	324.0	302.9
91.5	330.0	302.9
91.51	332.0	302.9
91.52	326.0	303.0
91.53	326.0	303.0
91.54	326.0	303.0
91.55	335.0	303.1
91.56	339.0	303.1
91.57	327.0	303.2
91.58	328.0	303.2
91.59	337.0	303.2
91.6	337.0	303.3
91.61	340.0	303.3
91.62	340.0	303.3
91.63	343.0	303.4
91.64	337.0	303.4
91.65	329.0	303.4
91.66	351.0	303.5
91.67	357.0	303.5
91.68	333.0	303.5
91.69	322.0	303.6
91.7	321.0	303.6
91.71	324.0	303.6
91.72	330.0	303.7
91.73	327.0	303.7
91.74	323.0	303.8
91.75	335.0	303.8
91.76	339.0	303.8
91.77	325.0	303.9
91.78	329.0	303.9
91.79	331.0	303.9
91.8	316.0	304.0
91.81	307.0	304.0
91.82	317.0	304.0
91.83	330.0	304.1
91.84	334.0	304.1
91.85	330.0	304.1
91.86	324.0	304.2
91.87	335.0	304.2
91.88	345.0	304.2
91.89	342.0	304.3
91.9	342.0	304.3
91.91	345.0	304.4
91.92	346.0	304.4
91.93	343.0	304.4
91.94	342.0	304.5
91.95	336.0	304.5
91.96	337.0	304.5
91.97	344.0	304.6
91.98	338.0	304.6
91.99	336.0	304.6
92.0	325.0	304.7
92.01	313.0	304.7
92.02	309.0	304.7
92.03	317.0	304.8
92.04	331.0	304.8
92.05	329.0	304.8
92.06	317.0	304.9
92.07	315.0	304.9
92.08	322.0	304.9
92.09	319.0	305.0
92.1	316.0	305.0
92.11	320.0	305.0
92.12	315.0	305.1
92.13	309.0	305.1
92.14	324.0	305.2
92.15	337.0	305.2
92.16	326.0	305.2
92.17	311.0	305.3
92.18	309.0	305.3
92.19	318.0	305.3
92.2	337.0	305.4
92.21	350.0	305.4
92.22	357.0	305.4
92.23	344.0	305.5
92.24	327.0	305.5
92.25	321.0	305.5
92.26	313.0	305.6
92.27	317.0	305.6
92.28	326.0	305.6
92.29	325.0	305.7
92.3	312.0	305.7
92.31	315.0	305.7
92.32	327.0	305.8
92.33	338.0	305.8
92.34	329.0	305.8
92.35	326.0	305.9
92.36	324.0	305.9
92.37	314.0	305.9
92.38	320.0	306.0
92.39	344.0	306.0
92.4	347.0	306.0
92.41	332.0	306.1
92.42	322.0	306.1
92.43	342.0	306.1
92.44	339.0	306.2
92.45	317.0	306.2
92.46	314.0	306.2
92.47	315.0	306.3
92.48	316.0	306.3
92.49	324.0	306.3
92.5	334.0	306.4
92.51	328.0	306.4
92.52	315.0	306.4
92.53	314.0	306.5
92.54	313.0	306.5
92.55	327.0	306.5
92.56	335.0	306.5
92.57	333.0	306.6
92.58	337.0	306.6
92.59	337.0	306.6
92.6	338.0	306.7
92.61	322.0	306.7
92.62	307.0	306.7
92.63	310.0	306.8
92.64	317.0	306.8
92.65	325.0	306.8
92.66	315.0	306.9
92.67	300.0	306.9
92.68	307.0	306.9
92.69	320.0	307.0
92.7	323.0	307.0
92.71	329.0	307.0
92.72	329.0	307.0
92.73	326.0	307.1
92.74	312.0	307.1
92.75	300.0	307.1
92.76	299.0	307.2
92.77	316.0	307.2
92.78	319.0	307.2
92.79	314.0	307.3
92.8	340.0	307.3
92.81	345.0	307.3
92.82	329.0	307.3
92.83	324.0	307.4
92.84	333.0	307.4
92.85	337.0	307.4
92.86	324.0	307.5
92.87	310.0	307.5
92.88	311.0	307.5
92.89	310.0	307.6
92.9	302.0	307.6
92.91	315.0	307.6
92.92	341.0	307.6
92.93	332.0	307.7
92.94	334.0	307.7
92.95	347.0	307.7
92.96	331.0	307.8
92.97	322.0	307.8
92.98	306.0	307.8
92.99	308.0	307.8
93.0	327.0	307.9
93.01	326.0	307.9
93.02	304.0	307.9
93.03	309.0	307.9
93.04	313.0	308.0
93.05	321.0	308.0
93.06	333.0	308.0
93.07	329.0	308.1
93.08	319.0	308.1
93.09	311.0	308.1
93.1	316.0	308.1
93.11	321.0	308.2
93.12	312.0	308.2
93.13	303.0	308.2
93.14	306.0	308.2
93.15	305.0	308.3
93.16	326.0	308.3
93.17	342.0	308.3
93.18	333.0	308.3
93.19	319.0	308.4
93.2	310.0	308.4
93.21	316.0	308.4
93.22	326.0	308.4
93.23	330.0	308.5
93.24	315.0	308.5
93.25	312.0	308.5
93.26	318.0	308.5
93.27	333.0	308.6
93.28	340.0	308.6
93.29	346.0	308.6
93.3	331.0	308.6
93.31	314.0	308.7
93.32	307.0	308.7
93.33	309.0	308.7
93.34	316.0	308.7
93.35	323.0	308.8
93.36	322.0	308.8
93.37	320.0	308.8
93.38	323.0	308.8
93.39	321.0	308.8
93.4	315.0	308.9
93.41	316.0	308.9
93.42	318.0	308.9
93.43	312.0	308.9
93.44	309.0	309.0
93.45	318.0	309.0
93.46	308.0	309.0
93.47	305.0	309.0
93.48	328.0	309.0
93.49	358.0	309.1
93.5	363.0	309.1
93.51	330.0	309.1
93.52	314.0	309.1
93.53	322.0	309.2
93.54	323.0	309.2
93.55	325.0	309.2
93.56	336.0	309.2
93.57	331.0	309.2
93.58	319.0	309.3
93.59	323.0	309.3
93.6	328.0	309.3
93.61	322.0	309.3
93.62	317.0	309.3
93.63	317.0	309.3
93.64	320.0	309.4
93.65	322.0	309.4
93.66	332.0	309.4
93.67	336.0	309.4
93.68	330.0	309.4
93.69	330.0	309.5
93.7	337.0	309.5
93.71	346.0	309.5
93.72	335.0	309.5
93.73	328.0	309.5
93.74	333.0	309.5
93.75	332.0	309.6
93.76	312.0	309.6
93.77	295.0	309.6
93.78	312.0	309.6
93.79	326.0	309.6
93.8	317.0	309.6
93.81	319.0	309.7
93.82	325.0	309.7
93.83	323.0	309.7
93.84	330.0	309.7
93.85	332.0	309.7
93.86	331.0	309.7
93.87	322.0	309.8
93.88	338.0	309.8
93.89	356.0	309.8
93.9	336.0	309.8
93.91	316.0	309.8
93.92	321.0	309.8
93.93	333.0	309.8
93.94	334.0	309.9
93.95	336.0	309.9
93.96	342.0	309.9
93.97	328.0	309.9
93.98	320.0	309.9
93.99	325.0	309.9
94.0	326.0	309.9
94.01	328.0	309.9
94.02	338.0	310.0
94.03	321.0	310.0
94.04	314.0	310.0
94.05	312.0	310.0
94.06	318.0	310.0
94.07	330.0	310.0
94.08	351.0	310.0
94.09	336.0	310.0
94.1	328.0	310.1
94.11	337.0	310.1
94.12	340.0	310.1
94.13	324.0	310.1
94.14	328.0	310.1
94.15	326.0	310.1
94.16	324.0	310.1
94.17	320.0	310.1
94.18	330.0	310.1
94.19	328.0	310.1
94.2	309.0	310.2
94.21	307.0	310.2
94.22	312.0	310.2
94.23	315.0	310.2
94.24	344.0	310.2
94.25	339.0	310.2
94.26	306.0	310.2
94.27	309.0	310.2
94.28	323.0	310.2
94.29	333.0	310.2
94.3	351.0	310.2
94.31	340.0	310.2
94.32	336.0	310.3
94.33	343.0	310.3
94.34	337.0	310.3
94.35	335.0	310.3
94.36	331.0	310.3
94.37	335.0	310.3
94.38	336.0	310.3
94.39	333.0	310.3
94.4	325.0	310.3
94.41	320.0	310.3
94.42	321.0	310.3
94.43	324.0	310.3
94.44	325.0	310.3
94.45	326.0	310.3
94.46	321.0	310.3
94.47	325.0	310.3
94.48	321.0	310.4
94.49	341.0	310.4
94.5	349.0	310.4
94.51	358.0	310.4
94.52	344.0	310.4
94.53	334.0	310.4
94.54	334.0	310.4
94.55	329.0	310.4
94.56	328.0	310.4
94.57	322.0	310.4
94.58	327.0	310.4
94.59	333.0	310.4
94.6	328.0	310.4
94.61	323.0	310.4
94.62	314.0	310.4
94.63	320.0	310.4
94.64	346.0	310.4
94.65	347.0	310.4
94.66	345.0	310.4
94.67	356.0	310.4
94.68	365.0	310.4
94.69	360.0	310.4
94.7	340.0	310.4
94.71	340.0	310.4
94.72	355.0	310.4
94.73	343.0	310.4
94.74	341.0	310.4
94.75	329.0	310.4
94.76	336.0	310.4
94.77	335.0	310.4
94.78	334.0	310.4
94.79	339.0	310.4
94.8	324.0	310.4
94.81	323.0	310.4
94.82	333.0	310.4
94.83	330.0	310.4
94.84	318.0	310.4
94.85	332.0	310.4
94.86	360.0	310.4
94.87	348.0	310.4
94.88	344.0	310.4
94.89	338.0	310.4
94.9	323.0	310.4
94.91	332.0	310.4
94.92	362.0	310.4
94.93	354.0	310.4
94.94	332.0	310.4
94.95	334.0	310.4
94.96	356.0	310.4
94.97	350.0	310.4
94.98	327.0	310.4
94.99	317.0	310.4
95.0	319.0	310.4
95.01	338.0	310.4
95.02	362.0	310.4
95.03	351.0	310.4
95.04	343.0	310.4
95.05	352.0	310.4
95.06	352.0	310.4
95.07	361.0	310.4
95.08	366.0	310.4
95.09	364.0	310.4
95.1	354.0	310.4
95.11	368.0	310.4
95.12	392.0	310.4
95.13	378.0	310.3
95.14	371.0	310.3
95.15	368.0	310.3
95.16	360.0	310.3
95.17	355.0	310.3
95.18	356.0	310.3
95.19	356.0	310.3
95.2	361.0	310.3
95.21	372.0	310.3
95.22	373.0	310.3
95.23	351.0	310.3
95.24	344.0	310.3
95.25	359.0	310.3
95.26	377.0	310.3
95.27	384.0	310.3
95.28	389.0	310.3
95.29	373.0	310.3
95.3	372.0	310.2
95.31	379.0	310.2
95.32	376.0	310.2
95.33	364.0	310.2
95.34	364.0	310.2
95.35	367.0	310.2
95.36	357.0	310.2
95.37	350.0	310.2
95.38	346.0	310.2
95.39	355.0	310.2
95.4	357.0	310.2
95.41	370.0	310.2
95.42	364.0	310.2
95.43	361.0	310.1
95.44	351.0	310.1
95.45	349.0	310.1
95.46	363.0	310.1
95.47	367.0	310.1
95.48	342.0	310.1
95.49	361.0	310.1
95.5	389.0	310.1
95.51	391.0	310.1
95.52	394.0	310.1
95.53	389.0	310.1
95.54	364.0	310.0
95.55	350.0	310.0
95.56	366.0	310.0
95.57	387.0	310.0
95.58	387.0	310.0
95.59	375.0	310.0
95.6	379.0	310.0
95.61	378.0	310.0
95.62	384.0	310.0
95.63	393.0	309.9
95.64	403.0	309.9
95.65	405.0	309.9
95.66	393.0	309.9
95.67	383.0	309.9
95.68	369.0	309.9
95.69	372.0	309.9
95.7	370.0	309.9
95.71	392.0	309.9
95.72	406.0	309.8
95.73	385.0	309.8
95.74	388.0	309.8
95.75	384.0	309.8
95.76	402.0	309.8
95.77	407.0	309.8
95.78	391.0	309.8
95.79	408.0	309.8
95.8	411.0	309.7
95.81	415.0	309.7
95.82	397.0	309.7
95.83	385.0	309.7
95.84	393.0	309.7
95.85	398.0	309.7
95.86	397.0	309.7
95.87	386.0	309.6
95.88	373.0	309.6
95.89	404.0	309.6
95.9	410.0	309.6
95.91	398.0	309.6
95.92	376.0	309.6
95.93	393.0	309.6
95.94	403.0	309.5
95.95	399.0	309.5
95.96	409.0	309.5
95.97	401.0	309.5
95.98	419.0	309.5
95.99	418.0	309.5
96.0	412.0	309.5
96.01	417.0	309.4
96.02	404.0	309.4
96.03	408.0	309.4
96.04	414.0	309.4
96.05	409.0	309.4
96.06	418.0	309.4
96.07	432.0	309.3
96.08	418.0	309.3
96.09	408.0	309.3
96.1	417.0	309.3
96.11	400.0	309.3
96.12	385.0	309.3
96.13	417.0	309.2
96.14	415.0	309.2
96.15	399.0	309.2
96.16	380.0	309.2
96.17	390.0	309.2
96.18	418.0	309.2
96.19	415.0	309.1
96.2	388.0	309.1
96.21	407.0	309.1
96.22	426.0	309.1
96.23	431.0	309.1
96.24	426.0	309.0
96.25	412.0	309.0
96.26	391.0	309.0
96.27	420.0	309.0
96.28	429.0	309.0
96.29	405.0	309.0
96.3	390.0	308.9
96.31	403.0	308.9
96.32	412.0	308.9
96.33	419.0	308.9
96.34	407.0	308.9
96.35	395.0	308.8
96.36	387.0	308.8
96.37	385.0	308.8
96.38	404.0	308.8
96.39	416.0	308.8
96.4	404.0	308.7
96.41	421.0	308.7
96.42	410.0	308.7
96.43	412.0	308.7
96.44	416.0	308.7
96.45	419.0	308.6
96.46	399.0	308.6
96.47	371.0	308.6
96.48	375.0	308.6
96.49	377.0	308.6
96.5	377.0	308.5
96.51	392.0	308.5
96.52	390.0	308.5
96.53	388.0	308.5
96.54	406.0	308.5
96.55	377.0	308.4
96.56	362.0	308.4
96.57	370.0	308.4
96.58	368.0	308.4
96.59	381.0	308.3
96.6	378.0	308.3
96.61	376.0	308.3
96.62	342.0	308.3
96.63	344.0	308.3
96.64	354.0	308.2
96.65	360.0	308.2
96.66	363.0	308.2
96.67	370.0	308.2
96.68	365.0	308.1
96.69	364.0	308.1
96.7	368.0	308.1
96.71	369.0	308.1
96.72	361.0	308.1
96.73	350.0	308.0
96.74	367.0	308.0
96.75	376.0	308.0
96.76	375.0	308.0
96.77	365.0	307.9
96.78	359.0	307.9
96.79	363.0	307.9
96.8	374.0	307.9
96.81	368.0	307.8
96.82	369.0	307.8
96.83	381.0	307.8
96.84	377.0	307.8
96.85	366.0	307.7
96.86	373.0	307.7
96.87	369.0	307.7
96.88	346.0	307.7
96.89	336.0	307.6
96.9	360.0	307.6
96.91	386.0	307.6
96.92	379.0	307.6
96.93	348.0	307.6
96.94	334.0	307.5
96.95	358.0	307.5
96.96	360.0	307.5
96.97	361.0	307.5
96.98	353.0	307.4
96.99	353.0	307.4
97.0	366.0	307.4
97.01	358.0	307.3
97.02	357.0	307.3
97.03	365.0	307.3
97.04	351.0	307.3
97.05	345.0	307.2
97.06	340.0	307.2
97.07	341.0	307.2
97.08	330.0	307.2
97.09	328.0	307.1
97.1	342.0	307.1
97.11	349.0	307.1
97.12	341.0	307.1
97.13	340.0	307.0
97.14	341.0	307.0
97.15	354.0	307.0
97.16	357.0	307.0
97.17	347.0	306.9
97.18	345.0	306.9
97.19	327.0	306.9
97.2	330.0	306.8
97.21	337.0	306.8
97.22	331.0	306.8
97.23	333.0	306.8
97.24	343.0	306.7
97.25	370.0	306.7
97.26	345.0	306.7
97.27	346.0	306.7
97.28	336.0	306.6
97.29	354.0	306.6
97.3	367.0	306.6
97.31	354.0	306.5
97.32	356.0	306.5
97.33	342.0	306.5
97.34	343.0	306.5
97.35	357.0	306.4
97.36	343.0	306.4
97.37	330.0	306.4
97.38	335.0	306.3
97.39	344.0	306.3
97.4	334.0	306.3
97.41	331.0	306.3
97.42	340.0	306.2
97.43	338.0	306.2
97.44	341.0	306.2
97.45	333.0	306.1
97.46	331.0	306.1
97.47	302.0	306.1
97.48	319.0	306.1
97.49	348.0	306.0
97.5	341.0	306.0
97.51	346.0	306.0
97.52	350.0	305.9
97.53	328.0	305.9
97.54	319.0	305.9
97.55	308.0	305.9
97.56	318.0	305.8
97.57	323.0	305.8
97.58	339.0	305.8
97.59	348.0	305.7
97.6	364.0	305.7
97.61	334.0	305.7
97.62	346.0	305.6
97.63	325.0	305.6
97.64	326.0	305.6
97.65	313.0	305.6
97.66	334.0	305.5
97.67	351.0	305.5
97.68	326.0	305.5
97.69	323.0	305.4
97.7	346.0	305.4
97.71	335.0	305.4
97.72	317.0	305.3
97.73	321.0	305.3
97.74	325.0	305.3
97.75	320.0	305.2
97.76	323.0	305.2
97.77	334.0	305.2
97.78	334.0	305.2
97.79	323.0	305.1
97.8	328.0	305.1
97.81	338.0	305.1
97.82	334.0	305.0
97.83	339.0	305.0
97.84	340.0	305.0
97.85	337.0	304.9
97.86	330.0	304.9
97.87	309.0	304.9
97.88	331.0	304.8
97.89	360.0	304.8
97.9	333.0	304.8
97.91	323.0	304.7
97.92	316.0	304.7
97.93	316.0	304.7
97.94	300.0	304.6
97.95	323.0	304.6
97.96	344.0	304.6
97.97	347.0	304.6
97.98	348.0	304.5
97.99	326.0	304.5
98.0	305.0	304.5
98.01	321.0	304.4
98.02	330.0	304.4
98.03	328.0	304.4
98.04	304.0	304.3
98.05	299.0	304.3
98.06	324.0	304.3
98.07	305.0	304.2
98.08	294.0	304.2
98.09	330.0	304.2
98.1	319.0	304.1
98.11	291.0	304.1
98.12	306.0	304.1
98.13	335.0	304.0
98.14	331.0	304.0
98.15	323.0	304.0
98.16	316.0	303.9
98.17	327.0	303.9
98.18	323.0	303.9
98.19	334.0	303.8
98.2	354.0	303.8
98.21	339.0	303.8
98.22	315.0	303.7
98.23	295.0	303.7
98.24	309.0	303.7
98.25	326.0	303.6
98.26	316.0	303.6
98.27	334.0	303.6
98.28	335.0	303.5
98.29	334.0	303.5
98.3	321.0	303.5
98.31	320.0	303.4
98.32	314.0	303.4
98.33	311.0	303.4
98.34	317.0	303.3
98.35	325.0	303.3
98.36	324.0	303.2
98.37	323.0	303.2
98.38	321.0	303.2
98.39	331.0	303.1
98.4	334.0	303.1
98.41	330.0	303.1
98.42	317.0	303.0
98.43	320.0	303.0
98.44	319.0	303.0
98.45	305.0	302.9
98.46	298.0	302.9
98.47	317.0	302.9
98.48	337.0	302.8
98.49	349.0	302.8
98.5	327.0	302.8
98.51	322.0	302.7
98.52	323.0	302.7
98.53	324.0	302.7
98.54	312.0	302.6
98.55	318.0	302.6
98.56	332.0	302.6
98.57	303.0	302.5
98.58	301.0	302.5
98.59	313.0	302.4
98.6	326.0	302.4
98.61	320.0	302.4
98.62	304.0	302.3
98.63	332.0	302.3
98.64	318.0	302.3
98.65	332.0	302.2
98.66	354.0	302.2
98.67	349.0	302.2
98.68	313.0	302.1
98.69	324.0	302.1
98.7	329.0	302.1
98.71	322.0	302.0
98.72	321.0	302.0
98.73	315.0	301.9
98.74	291.0	301.9
98.75	325.0	301.9
98.76	309.0	301.8
98.77	320.0	301.8
98.78	320.0	301.8
98.79	331.0	301.7
98.8	325.0	301.7
98.81	309.0	301.7
98.82	304.0	301.6
98.83	331.0	301.6
98.84	337.0	301.6
98.85	338.0	301.5
98.86	340.0	301.5
98.87	327.0	301.4
98.88	316.0	301.4
98.89	310.0	301.4
98.9	313.0	301.3
98.91	321.0	301.3
98.92	304.0	301.3
98.93	272.0	301.2
98.94	304.0	301.2
98.95	318.0	301.2
98.96	325.0	301.1
98.97	338.0	301.1
98.98	335.0	301.0
98.99	304.0	301.0
99.0	302.0	301.0
99.01	330.0	300.9
99.02	337.0	300.9
99.03	330.0	300.9
99.04	330.0	300.8
99.05	320.0	300.8
99.06	309.0	300.7
99.07	333.0	300.7
99.08	332.0	300.7
99.09	316.0	300.6
99.1	308.0	300.6
99.11	306.0	300.6
99.12	330.0	300.5
99.13	334.0	300.5
99.14	303.0	300.4
99.15	304.0	300.4
99.16	306.0	300.4
99.17	317.0	300.3
99.18	303.0	300.3
99.19	322.0	300.3
99.2	328.0	300.2
99.21	340.0	300.2
99.22	304.0	300.2
99.23	283.0	300.1
99.24	304.0	300.1
99.25	326.0	300.0
99.26	332.0	300.0
99.27	329.0	300.0
99.28	319.0	299.9
99.29	326.0	299.9
99.3	335.0	299.9
99.31	343.0	299.8
99.32	340.0	299.8
99.33	329.0	299.7
99.34	325.0	299.7
99.35	315.0	299.7
99.36	323.0	299.6
99.37	321.0	299.6
99.38	304.0	299.6
99.39	301.0	299.5
99.4	322.0	299.5
99.41	332.0	299.4
99.42	319.0	299.4
99.43	308.0	299.4
99.44	310.0	299.3
99.45	298.0	299.3
99.46	296.0	299.3
99.47	334.0	299.2
99.48	338.0	299.2
99.49	325.0	299.1
99.5	307.0	299.1
99.51	311.0	299.1
99.52	320.0	299.0
99.53	327.0	299.0
99.54	317.0	298.9
99.55	308.0	298.9
99.56	314.0	298.9
99.57	323.0	298.8
99.58	306.0	298.8
99.59	302.0	298.8
99.6	314.0	298.7
99.61	292.0	298.7
99.62	298.0	298.6
99.63	331.0	298.6
99.64	346.0	298.6
99.65	317.0	298.5
99.66	305.0	298.5
99.67	311.0	298.5
99.68	311.0	298.4
99.69	307.0	298.4
99.7	314.0	298.3
99.71	294.0	298.3
99.72	292.0	298.3
99.73	331.0	298.2
99.74	321.0	298.2
99.75	321.0	298.2
99.76	286.0	298.1
99.77	270.0	298.1
99.78	309.0	298.0
99.79	329.0	298.0
99.8	310.0	298.0
99.81	328.0	297.9
99.82	325.0	297.9
99.83	314.0	297.8
99.84	308.0	297.8
99.85	303.0	297.8
99.86	312.0	297.7
99.87	315.0	297.7
99.88	309.0	297.7
99.89	312.0	297.6
99.9	319.0	297.6
99.91	310.0	297.5
99.92	326.0	297.5
99.93	320.0	297.5
99.94	310.0	297.4
99.95	321.0	297.4
99.96	288.0	297.4
99.97	312.0	297.3
99.98	333.0	297.3
99.99	325.0	297.2
100.0	320.0	297.2
